Data from HR4C21111__53__10-17-57-932.txt Node

Date: Mon Feb 22 10:17:57 IST 2021
User: Kapil
Spectrometer: HR4C2111
Trigger mode: 4
Integration Time (sec): 2.300000E0
Scans to average: 1
Electric dark correction enabled: true
Nonlinearity correction enabled: false
Boxcar width: 0
XAxis mode: Wavelengths
Number of Pixels in Spectrum: 3648
>>>>>Begin Spectral Data<<<<<
189.472	-459.46
189.745	-459.46
190.017	-459.46
190.289	-465.46
190.561	-304.46
190.834	-40.46
191.106	-130.46
191.378	27.54
191.65	20.54
191.923	-142.46
192.195	-107.46
192.467	121.54
192.739	117.54
193.011	-17.46
193.284	78.54
193.556	171.54
193.828	-12.46
194.1	-86.46
194.372	-119.46
194.644	35.54
194.916	46.54
195.188	-167.46
195.46	-85.46
195.732	44.54
196.004	-32.46
196.276	-114.46
196.548	-69.46
196.82	60.54
197.092	42.54
197.364	-147.46
197.636	-95.46
197.908	18.54
198.18	-49.46
198.452	-100.46
198.724	-56.46
198.996	38.54
199.268	73.54
199.54	-30.46
199.811	-120.46
200.083	100.54
200.355	12.54
200.627	-202.46
200.899	-71.46
201.171	38.54
201.442	-77.46
201.714	-203.46
201.986	-101.46
202.258	58.54
202.529	99.54
202.801	-11.46
203.073	66.54
203.345	179.54
203.616	0.54
203.888	-146.46
204.16	-160.46
204.431	59.54
204.703	-8.46
204.974	-134.46
205.246	-12.46
205.518	173.54
205.789	-8.46
206.061	-143.46
206.332	-115.46
206.604	-0.46
206.876	90.54
207.147	118.54
207.419	5.54
207.69	129.54
207.962	-46.46
208.233	-185.46
208.505	-4.46
208.776	145.54
209.047	60.54
209.319	-131.46
209.59	-93.46
209.862	130.54
210.133	29.54
210.404	-145.46
210.676	-110.46
210.947	78.54
211.219	65.54
211.49	-134.46
211.761	-66.46
212.033	27.54
212.304	-55.46
212.575	-198.46
212.846	-102.46
213.118	12.54
213.389	-66.46
213.66	-118.46
213.931	-58.46
214.203	21.54
214.474	-50.46
214.745	-144.46
215.016	125.54
215.287	437.54
215.559	54.54
215.83	-118.46
216.101	-77.46
216.372	-8.46
216.643	59.54
216.914	-5.46
217.185	-88.46
217.456	147.54
217.727	15.54
217.998	-164.46
218.269	-74.46
218.54	26.54
218.811	-22.46
219.082	-121.46
219.353	-92.46
219.624	-23.46
219.895	-42.46
220.166	-142.46
220.437	-117.46
220.708	82.54
220.979	-13.46
221.25	-141.46
221.521	-105.46
221.792	9.54
222.063	61.54
222.334	29.54
222.604	187.54
222.875	162.54
223.146	67.54
223.417	-203.46
223.688	-50.46
223.958	105.54
224.229	-63.46
224.5	-198.46
224.771	-83.46
225.041	85.54
225.312	53.54
225.583	-103.46
225.854	-66.46
226.124	78.54
226.395	-13.46
226.666	-137.46
226.936	-114.46
227.207	44.54
227.478	-63.46
227.748	-112.46
228.019	33.54
228.289	235.54
228.56	-46.46
228.831	-65.46
229.101	31.54
229.372	50.54
229.642	-38.46
229.913	-175.46
230.183	-143.46
230.454	-19.46
230.724	-13.46
230.995	-108.46
231.265	-73.46
231.536	60.54
231.806	32.54
232.076	-117.46
232.347	-122.46
232.617	25.54
232.888	8.54
233.158	-88.46
233.428	-140.46
233.699	-24.46
233.969	-52.46
234.239	-162.46
234.51	-96.46
234.78	31.54
235.05	-31.46
235.321	-136.46
235.591	-83.46
235.861	51.54
236.131	-62.46
236.402	-200.46
236.672	-102.46
236.942	39.54
237.212	36.54
237.483	-86.46
237.753	-10.46
238.023	143.54
238.293	6.54
238.563	-87.46
238.833	-117.46
239.103	63.54
239.374	-28.46
239.644	-139.46
239.914	-37.46
240.184	118.54
240.454	-4.46
240.724	-178.46
240.994	-68.46
241.264	15.54
241.534	49.54
241.804	-26.46
242.074	-99.46
242.344	-55.46
242.614	-74.46
242.884	-203.46
243.154	-137.46
243.424	31.54
243.694	62.54
243.964	-101.46
244.234	-88.46
244.503	119.54
244.773	2.54
245.043	-233.46
245.313	-138.46
245.583	112.54
245.853	64.54
246.123	-188.46
246.392	-105.46
246.662	-3.46
246.932	-40.46
247.202	-198.46
247.471	-81.46
247.741	238.54
248.011	87.54
248.281	-166.46
248.55	-108.46
248.82	53.54
249.09	-14.46
249.359	-90.46
249.629	-78.46
249.899	39.54
250.168	41.54
250.438	-32.46
250.708	-114.46
250.977	61.54
251.247	56.54
251.516	-117.46
251.786	-61.46
252.055	116.54
252.325	14.54
252.595	-103.46
252.864	-52.46
253.134	40.54
253.403	-46.46
253.673	-177.46
253.942	-120.46
254.212	18.54
254.481	-24.46
254.75	-160.46
255.02	-90.46
255.289	70.54
255.559	-34.46
255.828	-150.46
256.097	-42.46
256.367	20.54
256.636	-75.46
256.906	-145.46
257.175	-24.46
257.444	247.54
257.714	51.54
257.983	-87.46
258.252	-56.46
258.521	-11.46
258.791	41.54
259.06	-121.46
259.329	-56.46
259.598	51.54
259.868	-30.46
260.137	-151.46
260.406	-32.46
260.675	74.54
260.944	11.54
261.214	-135.46
261.483	-57.46
261.752	178.54
262.021	19.54
262.29	-155.46
262.559	-130.46
262.828	12.54
263.097	-42.46
263.366	-220.46
263.635	-106.46
263.905	124.54
264.174	-4.46
264.443	-225.46
264.712	-116.46
264.981	29.54
265.25	-61.46
265.519	-149.46
265.788	-155.46
266.057	11.54
266.325	37.54
266.594	-72.46
266.863	-129.46
267.132	13.54
267.401	-21.46
267.67	-208.46
267.939	-164.46
268.208	10.54
268.477	45.54
268.745	-143.46
269.014	-116.46
269.283	111.54
269.552	27.54
269.821	-127.46
270.089	-17.46
270.358	2.54
270.627	-34.46
270.896	-144.46
271.164	-166.46
271.433	7.54
271.702	71.54
271.971	-155.46
272.239	-149.46
272.508	16.54
272.777	-43.46
273.045	-27.46
273.314	-34.46
273.583	97.54
273.851	-23.46
274.12	-166.46
274.388	-128.46
274.657	-7.46
274.926	-21.46
275.194	-166.46
275.463	-79.46
275.731	16.54
276	156.54
276.268	347.54
276.537	-87.46
276.805	24.54
277.074	42.54
277.342	-174.46
277.611	-117.46
277.879	85.54
278.148	15.54
278.416	-162.46
278.684	-143.46
278.953	-46.46
279.221	-45.46
279.49	-202.46
279.758	-117.46
280.026	-24.46
280.295	-3.46
280.563	-142.46
280.831	1007.54
281.1	2444.54
281.368	218.54
281.636	-105.46
281.904	-119.46
282.173	-25.46
282.441	-70.46
282.709	-102.46
282.977	12.54
283.246	29.54
283.514	-35.46
283.782	-65.46
284.05	15.54
284.318	54.54
284.587	-38.46
284.855	-143.46
285.123	-87.46
285.391	55.54
285.659	34.54
285.927	-162.46
286.195	-82.46
286.463	45.54
286.732	-7.46
287	-121.46
287.268	-71.46
287.536	12.54
287.804	-44.46
288.072	-136.46
288.34	-106.46
288.608	60.54
288.876	-40.46
289.144	-132.46
289.412	-31.46
289.68	52.54
289.948	-33.46
290.215	-129.46
290.483	-121.46
290.751	83.54
291.019	82.54
291.287	-182.46
291.555	-130.46
291.823	14.54
292.091	-32.46
292.358	-83.46
292.626	-32.46
292.894	67.54
293.162	42.54
293.43	-118.46
293.697	-101.46
293.965	38.54
294.233	-35.46
294.501	-174.46
294.768	-95.46
295.036	45.54
295.304	32.54
295.572	-147.46
295.839	-110.46
296.107	94.54
296.375	-9.46
296.642	-155.46
296.91	-145.46
297.178	28.54
297.445	162.54
297.713	86.54
297.98	-95.46
298.248	-39.46
298.516	-58.46
298.783	-135.46
299.051	-134.46
299.318	-4.46
299.586	-44.46
299.853	-92.46
300.121	-91.46
300.388	26.54
300.656	-26.46
300.923	-158.46
301.191	-49.46
301.458	44.54
301.726	-36.46
301.993	-166.46
302.26	-106.46
302.528	30.54
302.795	-26.46
303.063	-91.46
303.33	-60.46
303.597	21.54
303.865	-0.46
304.132	-136.46
304.399	-124.46
304.667	-46.46
304.934	-11.46
305.201	-129.46
305.469	-52.46
305.736	37.54
306.003	41.54
306.27	-60.46
306.538	-111.46
306.805	-22.46
307.072	-52.46
307.339	-114.46
307.606	-62.46
307.874	142.54
308.141	55.54
308.408	-141.46
308.675	-123.46
308.942	-59.46
309.209	-95.46
309.477	-156.46
309.744	-115.46
310.011	4.54
310.278	19.54
310.545	-54.46
310.812	-68.46
311.079	121.54
311.346	186.54
311.613	54.54
311.88	-37.46
312.147	-79.46
312.414	-54.46
312.681	-129.46
312.948	-45.46
313.215	106.54
313.482	66.54
313.749	-120.46
314.016	-223.46
314.283	-74.46
314.55	20.54
314.817	-109.46
315.083	-141.46
315.35	-85.46
315.617	-152.46
315.884	-159.46
316.151	41.54
316.418	146.54
316.684	-35.46
316.951	-204.46
317.218	-137.46
317.485	-21.46
317.752	-71.46
318.018	-138.46
318.285	-26.46
318.552	12.54
318.819	-61.46
319.085	-157.46
319.352	-66.46
319.619	20.54
319.885	-57.46
320.152	-214.46
320.419	-125.46
320.685	16.54
320.952	-46.46
321.219	-89.46
321.485	52.54
321.752	4.54
322.019	-62.46
322.285	12.54
322.552	-25.46
322.818	113.54
323.085	-36.46
323.351	-151.46
323.618	-30.46
323.884	25.54
324.151	-81.46
324.417	-61.46
324.684	-99.46
324.95	-63.46
325.217	-155.46
325.483	-194.46
325.75	-48.46
326.016	-15.46
326.283	-38.46
326.549	-198.46
326.815	-82.46
327.082	89.54
327.348	8.54
327.615	-106.46
327.881	-33.46
328.147	104.54
328.414	116.54
328.68	-7.46
328.946	-52.46
329.212	2.54
329.479	-9.46
329.745	-120.46
330.011	-125.46
330.278	-0.46
330.544	-50.46
330.81	-35.46
331.076	-40.46
331.342	-53.46
331.609	-50.46
331.875	-90.46
332.141	-102.46
332.407	17.54
332.673	-9.46
332.94	-27.46
333.206	-49.46
333.472	42.54
333.738	58.54
334.004	-137.46
334.27	-44.46
334.536	-28.46
334.802	-65.46
335.068	-126.46
335.334	-13.46
335.6	-0.46
335.866	-49.46
336.132	-178.46
336.398	-102.46
336.664	-46.46
336.93	-73.46
337.196	-109.46
337.462	-41.46
337.728	25.54
337.994	-54.46
338.26	-127.46
338.526	-62.46
338.792	-69.46
339.058	-62.46
339.324	-154.46
339.59	-31.46
339.856	49.54
340.121	-70.46
340.387	-142.46
340.653	67.54
340.919	132.54
341.185	38.54
341.45	-93.46
341.716	-7.46
341.982	92.54
342.248	-66.46
342.514	-95.46
342.779	-15.46
343.045	21.54
343.311	-21.46
343.576	-97.46
343.842	-59.46
344.108	106.54
344.374	0.54
344.639	-135.46
344.905	-104.46
345.171	45.54
345.436	-75.46
345.702	-116.46
345.967	25.54
346.233	55.54
346.499	-16.46
346.764	-199.46
347.03	-97.46
347.295	-49.46
347.561	-21.46
347.826	-70.46
348.092	-152.46
348.357	-55.46
348.623	-54.46
348.888	-156.46
349.154	-109.46
349.419	38.54
349.685	-11.46
349.95	-120.46
350.216	-96.46
350.481	7.54
350.747	-75.46
351.012	-206.46
351.277	-138.46
351.543	1.54
351.808	-48.46
352.074	-221.46
352.339	-171.46
352.604	-10.46
352.87	-28.46
353.135	-139.46
353.4	-94.46
353.666	-49.46
353.931	-48.46
354.196	-173.46
354.461	-168.46
354.727	-10.46
354.992	-43.46
355.257	-179.46
355.522	-78.46
355.788	-42.46
356.053	19.54
356.318	-122.46
356.583	-147.46
356.848	53.54
357.113	158.54
357.379	-124.46
357.644	-136.46
357.909	59.54
358.174	96.54
358.439	-176.46
358.704	-133.46
358.969	-7.46
359.234	17.54
359.499	-167.46
359.765	-96.46
360.03	36.54
360.295	32.54
360.56	-146.46
360.825	-83.46
361.09	110.54
361.355	-78.46
361.62	-119.46
361.885	-84.46
362.15	-98.46
362.415	-84.46
362.679	-151.46
362.944	-7.46
363.209	13.54
363.474	36.54
363.739	-35.46
364.004	-130.46
364.269	-68.46
364.534	-27.46
364.799	-88.46
365.063	-80.46
365.328	13.54
365.593	29.54
365.858	-116.46
366.123	-127.46
366.387	17.54
366.652	-66.46
366.917	-180.46
367.182	-122.46
367.447	24.54
367.711	-35.46
367.976	-97.46
368.241	-27.46
368.505	22.54
368.77	-72.46
369.035	-95.46
369.299	-47.46
369.564	-12.46
369.829	-96.46
370.093	-131.46
370.358	-136.46
370.623	-36.46
370.887	-14.46
371.152	-161.46
371.416	-88.46
371.681	-59.46
371.946	-144.46
372.21	-179.46
372.475	-51.46
372.739	-18.46
373.004	-69.46
373.268	-110.46
373.533	-65.46
373.797	-19.46
374.062	-27.46
374.326	-176.46
374.591	-94.46
374.855	-16.46
375.12	-77.46
375.384	-237.46
375.648	-161.46
375.913	-30.46
376.177	-21.46
376.442	-137.46
376.706	-126.46
376.97	0.54
377.235	-52.46
377.499	-93.46
377.763	-110.46
378.028	-103.46
378.292	-57.46
378.556	-140.46
378.821	-204.46
379.085	-116.46
379.349	-187.46
379.614	-258.46
379.878	-146.46
380.142	44.54
380.406	-40.46
380.671	-65.46
380.935	65.54
381.199	154.54
381.463	29.54
381.727	-29.46
381.991	-80.46
382.256	-5.46
382.52	-60.46
382.784	-57.46
383.048	70.54
383.312	-14.46
383.576	-56.46
383.84	-164.46
384.104	-99.46
384.369	-31.46
384.633	-150.46
384.897	-238.46
385.161	-120.46
385.425	-13.46
385.689	-78.46
385.953	-133.46
386.217	-170.46
386.481	-62.46
386.745	-40.46
387.009	-81.46
387.273	-137.46
387.537	-89.46
387.801	-68.46
388.064	-142.46
388.328	-50.46
388.592	-5.46
388.856	-88.46
389.12	-149.46
389.384	-78.46
389.648	-47.46
389.912	25.54
390.176	11.54
390.439	112.54
390.703	-65.46
390.967	-101.46
391.231	-179.46
391.495	-133.46
391.758	-69.46
392.022	-50.46
392.286	-179.46
392.55	-162.46
392.813	-55.46
393.077	-9.46
393.341	-76.46
393.605	-7.46
393.868	-57.46
394.132	-78.46
394.396	-100.46
394.659	15.54
394.923	-38.46
395.187	-102.46
395.45	-132.46
395.714	-78.46
395.978	-46.46
396.241	-33.46
396.505	-106.46
396.768	-58.46
397.032	-11.46
397.295	-10.46
397.559	-101.46
397.823	-137.46
398.086	-5.46
398.35	-55.46
398.613	-176.46
398.877	-43.46
399.14	74.54
399.404	67.54
399.667	-39.46
399.931	-116.46
400.194	-29.46
400.457	-58.46
400.721	-88.46
400.984	11.54
401.248	-47.46
401.511	-90.46
401.775	-183.46
402.038	-137.46
402.301	69.54
402.565	12.54
402.828	-221.46
403.091	-137.46
403.355	-11.46
403.618	-11.46
403.881	-19.46
404.145	-68.46
404.408	-6.46
404.671	-48.46
404.934	-43.46
405.198	-17.46
405.461	-6.46
405.724	23.54
405.987	-10.46
406.251	19.54
406.514	106.54
406.777	-44.46
407.04	-122.46
407.303	-147.46
407.567	-4.46
407.83	59.54
408.093	-132.46
408.356	-39.46
408.619	27.54
408.882	56.54
409.145	-54.46
409.408	-78.46
409.672	16.54
409.935	-41.46
410.198	-162.46
410.461	-93.46
410.724	53.54
410.987	-29.46
411.25	-140.46
411.513	-21.46
411.776	40.54
412.039	-80.46
412.302	-130.46
412.565	-131.46
412.828	-82.46
413.091	-97.46
413.354	-167.46
413.617	-129.46
413.879	-64.46
414.142	-42.46
414.405	-153.46
414.668	-79.46
414.931	37.54
415.194	4.54
415.457	-148.46
415.72	-85.46
415.983	-31.46
416.245	-24.46
416.508	-133.46
416.771	-149.46
417.034	0.54
417.297	-12.46
417.559	-49.46
417.822	-81.46
418.085	16.54
418.348	-10.46
418.61	-156.46
418.873	-143.46
419.136	-105.46
419.399	-120.46
419.661	-94.46
419.924	-106.46
420.187	-19.46
420.449	-58.46
420.712	-118.46
420.975	-163.46
421.237	-54.46
421.5	-62.46
421.762	-16.46
422.025	23.54
422.288	45.54
422.55	-120.46
422.813	-198.46
423.075	-110.46
423.338	-47.46
423.601	-32.46
423.863	-87.46
424.126	-74.46
424.388	36.54
424.651	-35.46
424.913	-97.46
425.176	-95.46
425.438	-59.46
425.701	2.54
425.963	-128.46
426.225	-167.46
426.488	-75.46
426.75	-100.46
427.013	-162.46
427.275	-96.46
427.538	-74.46
427.8	-83.46
428.062	-155.46
428.325	-82.46
428.587	18.54
428.849	-41.46
429.112	-105.46
429.374	-122.46
429.636	-61.46
429.899	-3.46
430.161	-112.46
430.423	-93.46
430.686	-2.46
430.948	-26.46
431.21	-158.46
431.472	-163.46
431.735	-73.46
431.997	-101.46
432.259	-83.46
432.521	-130.46
432.783	-29.46
433.046	-44.46
433.308	-147.46
433.57	-87.46
433.832	117.54
434.094	-82.46
434.356	-208.46
434.618	-122.46
434.881	-49.46
435.143	-94.46
435.405	-67.46
435.667	-46.46
435.929	-39.46
436.191	-73.46
436.453	-160.46
436.715	-73.46
436.977	-8.46
437.239	-53.46
437.501	-167.46
437.763	-134.46
438.025	-3.46
438.287	-29.46
438.549	-127.46
438.811	-84.46
439.073	-47.46
439.335	-126.46
439.597	-138.46
439.859	-60.46
440.121	49.54
440.383	-114.46
440.645	-132.46
440.907	-76.46
441.168	-23.46
441.43	-80.46
441.692	-172.46
441.954	-134.46
442.216	-57.46
442.478	-80.46
442.74	-200.46
443.001	-96.46
443.263	52.54
443.525	-10.46
443.787	-138.46
444.048	-99.46
444.31	-71.46
444.572	-86.46
444.834	-115.46
445.095	-103.46
445.357	18.54
445.619	-32.46
445.881	-228.46
446.142	-139.46
446.404	-73.46
446.666	-61.46
446.927	-108.46
447.189	43.54
447.451	46.54
447.712	-15.46
447.974	-226.46
448.235	-184.46
448.497	-46.46
448.759	-116.46
449.02	-179.46
449.282	-212.46
449.543	-45.46
449.805	8.54
450.066	-210.46
450.328	-92.46
450.59	113.54
450.851	-34.46
451.113	-67.46
451.374	-154.46
451.636	-18.46
451.897	20.54
452.158	-59.46
452.42	44.54
452.681	68.54
452.943	-99.46
453.204	-185.46
453.466	-171.46
453.727	-92.46
453.988	-57.46
454.25	-166.46
454.511	-195.46
454.773	-77.46
455.034	68.54
455.295	-160.46
455.557	-180.46
455.818	-85.46
456.079	-55.46
456.341	42.54
456.602	23.54
456.863	3.54
457.124	-75.46
457.386	-179.46
457.647	-189.46
457.908	-105.46
458.169	11.54
458.431	-173.46
458.692	-182.46
458.953	-75.46
459.214	-104.46
459.476	-95.46
459.737	-24.46
459.998	7.54
460.259	-74.46
460.52	-189.46
460.781	-133.46
461.043	20.54
461.304	-100.46
461.565	-194.46
461.826	-158.46
462.087	-52.46
462.348	-10.46
462.609	-145.46
462.87	-75.46
463.131	-98.46
463.392	-20.46
463.653	-117.46
463.914	-81.46
464.175	-27.46
464.436	-99.46
464.697	-165.46
464.958	-136.46
465.219	-35.46
465.48	-51.46
465.741	-90.46
466.002	-136.46
466.263	-82.46
466.524	-56.46
466.785	-157.46
467.046	-126.46
467.307	-41.46
467.568	-109.46
467.829	-121.46
468.089	-81.46
468.35	-38.46
468.611	-90.46
468.872	-173.46
469.133	-68.46
469.394	10.54
469.655	56.54
469.915	-121.46
470.176	-180.46
470.437	-141.46
470.698	-71.46
470.958	-135.46
471.219	-187.46
471.48	-117.46
471.741	-124.46
472.001	-185.46
472.262	-132.46
472.523	-8.46
472.784	34.54
473.044	-131.46
473.305	-89.46
473.566	26.54
473.826	-11.46
474.087	-132.46
474.348	-122.46
474.608	-56.46
474.869	-14.46
475.129	-128.46
475.39	-163.46
475.651	-76.46
475.911	-38.46
476.172	-184.46
476.432	-82.46
476.693	62.54
476.953	-30.46
477.214	-58.46
477.475	-40.46
477.735	-28.46
477.996	-26.46
478.256	-221.46
478.517	-179.46
478.777	-63.46
479.038	10.54
479.298	-11.46
479.558	-92.46
479.819	56.54
480.079	45.54
480.34	-45.46
480.6	-114.46
480.861	-23.46
481.121	-59.46
481.381	-157.46
481.642	-81.46
481.902	-61.46
482.162	-144.46
482.423	-136.46
482.683	-48.46
482.943	-12.46
483.204	-105.46
483.464	-120.46
483.724	-94.46
483.985	-46.46
484.245	-9.46
484.505	-109.46
484.765	-30.46
485.026	47.54
485.286	14.54
485.546	-69.46
485.806	-17.46
486.067	-3.46
486.327	-117.46
486.587	-178.46
486.847	-156.46
487.107	-46.46
487.368	-27.46
487.628	-106.46
487.888	-113.46
488.148	-12.46
488.408	-103.46
488.668	-100.46
488.928	-51.46
489.188	-45.46
489.449	47.54
489.709	-95.46
489.969	-120.46
490.229	-40.46
490.489	-54.46
490.749	-133.46
491.009	-200.46
491.269	-109.46
491.529	-105.46
491.789	-179.46
492.049	-102.46
492.309	1.54
492.569	-86.46
492.829	-122.46
493.089	-122.46
493.349	33.54
493.609	-51.46
493.869	-153.46
494.129	-81.46
494.389	33.54
494.648	-88.46
494.908	-181.46
495.168	-89.46
495.428	28.54
495.688	-47.46
495.948	-215.46
496.208	-190.46
496.467	-122.46
496.727	-74.46
496.987	-93.46
497.247	-109.46
497.507	-22.46
497.767	11.54
498.026	-172.46
498.286	-83.46
498.546	105.54
498.806	-21.46
499.065	32.54
499.325	-41.46
499.585	-51.46
499.845	-49.46
500.104	-49.46
500.364	36.54
500.624	-10.46
500.883	-81.46
501.143	-43.46
501.403	-0.46
501.662	76.54
501.922	-18.46
502.182	-153.46
502.441	-153.46
502.701	-81.46
502.96	27.54
503.22	-53.46
503.48	-105.46
503.739	-34.46
503.999	-76.46
504.258	-158.46
504.518	-91.46
504.777	15.54
505.037	-31.46
505.296	-89.46
505.556	-111.46
505.815	20.54
506.075	87.54
506.334	-12.46
506.594	-173.46
506.853	-104.46
507.113	-102.46
507.372	-240.46
507.632	-166.46
507.891	-60.46
508.151	-26.46
508.41	-182.46
508.669	-141.46
508.929	-8.46
509.188	-63.46
509.447	-110.46
509.707	-152.46
509.966	-64.46
510.226	-44.46
510.485	-98.46
510.744	-74.46
511.004	3.54
511.263	-87.46
511.522	-186.46
511.781	-138.46
512.041	-2.46
512.3	-67.46
512.559	-38.46
512.818	3.54
513.078	6.54
513.337	-21.46
513.596	-113.46
513.855	-122.46
514.115	2.54
514.374	-69.46
514.633	-178.46
514.892	-180.46
515.151	-34.46
515.41	8.54
515.67	-81.46
515.929	-136.46
516.188	-47.46
516.447	-66.46
516.706	-140.46
516.965	-121.46
517.224	-86.46
517.483	-83.46
517.743	-134.46
518.002	-86.46
518.261	-2.46
518.52	-41.46
518.779	-145.46
519.038	-126.46
519.297	-76.46
519.556	-89.46
519.815	-184.46
520.074	-170.46
520.333	-76.46
520.592	-82.46
520.851	-165.46
521.11	-54.46
521.369	88.54
521.628	-82.46
521.887	-169.46
522.145	-101.46
522.404	-41.46
522.663	-55.46
522.922	-210.46
523.181	-184.46
523.44	-37.46
523.699	-15.46
523.958	-193.46
524.217	-156.46
524.475	-129.46
524.734	-156.46
524.993	-180.46
525.252	-108.46
525.511	-34.46
525.769	-94.46
526.028	-174.46
526.287	-110.46
526.546	-43.46
526.805	-65.46
527.063	-161.46
527.322	-178.46
527.581	-89.46
527.839	-74.46
528.098	-89.46
528.357	-73.46
528.616	-51.46
528.874	-70.46
529.133	-107.46
529.392	-88.46
529.65	-34.46
529.909	-62.46
530.168	-164.46
530.426	-117.46
530.685	17.54
530.943	-29.46
531.202	-151.46
531.461	-154.46
531.719	-9.46
531.978	-73.46
532.236	-147.46
532.495	-70.46
532.753	-9.46
533.012	-106.46
533.271	-177.46
533.529	-173.46
533.788	-93.46
534.046	-168.46
534.305	-203.46
534.563	18.54
534.822	95.54
535.08	-35.46
535.338	-145.46
535.597	-91.46
535.855	0.54
536.114	-63.46
