Data from HR4C21111__48__10-17-30-335.txt Node

Date: Mon Feb 22 10:17:30 IST 2021
User: Kapil
Spectrometer: HR4C2111
Trigger mode: 4
Integration Time (sec): 2.300000E0
Scans to average: 1
Electric dark correction enabled: true
Nonlinearity correction enabled: false
Boxcar width: 0
XAxis mode: Wavelengths
Number of Pixels in Spectrum: 3648
>>>>>Begin Spectral Data<<<<<
189.472	-445.69
189.745	-445.69
190.017	-445.69
190.289	-469.69
190.561	-301.69
190.834	-21.69
191.106	-120.69
191.378	17.31
191.65	10.31
191.923	-129.69
192.195	-90.69
192.467	136.31
192.739	114.31
193.011	-35.69
193.284	66.31
193.556	157.31
193.828	-10.69
194.1	-92.69
194.372	-117.69
194.644	48.31
194.916	65.31
195.188	-151.69
195.46	-81.69
195.732	56.31
196.004	-20.69
196.276	-115.69
196.548	-72.69
196.82	64.31
197.092	57.31
197.364	-133.69
197.636	-86.69
197.908	27.31
198.18	-44.69
198.452	-107.69
198.724	-56.69
198.996	43.31
199.268	61.31
199.54	-30.69
199.811	-113.69
200.083	86.31
200.355	13.31
200.627	-200.69
200.899	-79.69
201.171	46.31
201.442	-55.69
201.714	-178.69
201.986	-112.69
202.258	45.31
202.529	110.31
202.801	-28.69
203.073	49.31
203.345	179.31
203.616	0.31
203.888	-147.69
204.16	-156.69
204.431	62.31
204.703	-17.69
204.974	-150.69
205.246	-4.69
205.518	184.31
205.789	2.31
206.061	-129.69
206.332	-102.69
206.604	10.31
206.876	84.31
207.147	106.31
207.419	6.31
207.69	128.31
207.962	-32.69
208.233	-186.69
208.505	10.31
208.776	181.31
209.047	80.31
209.319	-131.69
209.59	-100.69
209.862	85.31
210.133	-36.69
210.404	-148.69
210.676	-102.69
210.947	89.31
211.219	59.31
211.49	-130.69
211.761	-49.69
212.033	27.31
212.304	-21.69
212.575	-181.69
212.846	-91.69
213.118	29.31
213.389	-59.69
213.66	-111.69
213.931	-56.69
214.203	13.31
214.474	-35.69
214.745	-121.69
215.016	112.31
215.287	418.31
215.559	64.31
215.83	-116.69
216.101	-71.69
216.372	-0.69
216.643	66.31
216.914	0.31
217.185	-77.69
217.456	148.31
217.727	22.31
217.998	-158.69
218.269	-58.69
218.54	17.31
218.811	-12.69
219.082	-93.69
219.353	-83.69
219.624	-23.69
219.895	-50.69
220.166	-137.69
220.437	-118.69
220.708	86.31
220.979	-5.69
221.25	-145.69
221.521	-104.69
221.792	14.31
222.063	63.31
222.334	12.31
222.604	165.31
222.875	146.31
223.146	81.31
223.417	-177.69
223.688	-33.69
223.958	120.31
224.229	-52.69
224.5	-198.69
224.771	-85.69
225.041	80.31
225.312	54.31
225.583	-106.69
225.854	-74.69
226.124	86.31
226.395	-18.69
226.666	-141.69
226.936	-121.69
227.207	47.31
227.478	-61.69
227.748	-114.69
228.019	36.31
228.289	238.31
228.56	-40.69
228.831	-42.69
229.101	49.31
229.372	62.31
229.642	-32.69
229.913	-170.69
230.183	-133.69
230.454	-13.69
230.724	-17.69
230.995	-116.69
231.265	-70.69
231.536	61.31
231.806	44.31
232.076	-108.69
232.347	-101.69
232.617	38.31
232.888	7.31
233.158	-81.69
233.428	-119.69
233.699	-21.69
233.969	-62.69
234.239	-153.69
234.51	-91.69
234.78	33.31
235.05	-30.69
235.321	-123.69
235.591	-77.69
235.861	57.31
236.131	-55.69
236.402	-195.69
236.672	-96.69
236.942	31.31
237.212	42.31
237.483	-54.69
237.753	7.31
238.023	152.31
238.293	-1.69
238.563	-87.69
238.833	-98.69
239.103	62.31
239.374	-26.69
239.644	-149.69
239.914	-45.69
240.184	128.31
240.454	-4.69
240.724	-165.69
240.994	-64.69
241.264	13.31
241.534	48.31
241.804	-25.69
242.074	-88.69
242.344	-32.69
242.614	-73.69
242.884	-195.69
243.154	-131.69
243.424	31.31
243.694	72.31
243.964	-98.69
244.234	-89.69
244.503	102.31
244.773	-5.69
245.043	-230.69
245.313	-145.69
245.583	113.31
245.853	78.31
246.123	-178.69
246.392	-121.69
246.662	-5.69
246.932	-31.69
247.202	-194.69
247.471	-71.69
247.741	261.31
248.011	115.31
248.281	-148.69
248.55	-99.69
248.82	41.31
249.09	-17.69
249.359	-96.69
249.629	-82.69
249.899	36.31
250.168	48.31
250.438	-31.69
250.708	-106.69
250.977	78.31
251.247	49.31
251.516	-119.69
251.786	-54.69
252.055	116.31
252.325	-4.69
252.595	-107.69
252.864	-66.69
253.134	45.31
253.403	-27.69
253.673	-167.69
253.942	-110.69
254.212	25.31
254.481	-15.69
254.75	-155.69
255.02	-104.69
255.289	70.31
255.559	-23.69
255.828	-138.69
256.097	-40.69
256.367	20.31
256.636	-86.69
256.906	-152.69
257.175	-26.69
257.444	231.31
257.714	30.31
257.983	-95.69
258.252	-54.69
258.521	2.31
258.791	39.31
259.06	-103.69
259.329	-61.69
259.598	43.31
259.868	-16.69
260.137	-146.69
260.406	-38.69
260.675	82.31
260.944	15.31
261.214	-151.69
261.483	-73.69
261.752	159.31
262.021	1.31
262.29	-177.69
262.559	-139.69
262.828	-3.69
263.097	-50.69
263.366	-214.69
263.635	-99.69
263.905	118.31
264.174	1.31
264.443	-212.69
264.712	-113.69
264.981	23.31
265.25	-54.69
265.519	-151.69
265.788	-161.69
266.057	22.31
266.325	54.31
266.594	-54.69
266.863	-124.69
267.132	15.31
267.401	-17.69
267.67	-203.69
267.939	-152.69
268.208	31.31
268.477	73.31
268.745	-125.69
269.014	-107.69
269.283	126.31
269.552	24.31
269.821	-120.69
270.089	-21.69
270.358	-22.69
270.627	-45.69
270.896	-149.69
271.164	-170.69
271.433	3.31
271.702	80.31
271.971	-155.69
272.239	-152.69
272.508	13.31
272.777	-34.69
273.045	-27.69
273.314	-48.69
273.583	97.31
273.851	-12.69
274.12	-160.69
274.388	-146.69
274.657	-26.69
274.926	-15.69
275.194	-156.69
275.463	-81.69
275.731	2.31
276	149.31
276.268	339.31
276.537	-100.69
276.805	14.31
277.074	30.31
277.342	-177.69
277.611	-109.69
277.879	107.31
278.148	27.31
278.416	-149.69
278.684	-135.69
278.953	-31.69
279.221	-51.69
279.49	-194.69
279.758	-102.69
280.026	-18.69
280.295	-1.69
280.563	-122.69
280.831	714.31
281.1	1824.31
281.368	168.31
281.636	-101.69
281.904	-115.69
282.173	-17.69
282.441	-62.69
282.709	-97.69
282.977	17.31
283.246	38.31
283.514	-48.69
283.782	-73.69
284.05	27.31
284.318	62.31
284.587	-34.69
284.855	-133.69
285.123	-70.69
285.391	58.31
285.659	40.31
285.927	-163.69
286.195	-82.69
286.463	48.31
286.732	-17.69
287	-134.69
287.268	-67.69
287.536	33.31
287.804	-38.69
288.072	-145.69
288.34	-94.69
288.608	52.31
288.876	-54.69
289.144	-139.69
289.412	-28.69
289.68	47.31
289.948	-47.69
290.215	-122.69
290.483	-110.69
290.751	88.31
291.019	96.31
291.287	-167.69
291.555	-138.69
291.823	15.31
292.091	-28.69
292.358	-82.69
292.626	-24.69
292.894	82.31
293.162	55.31
293.43	-121.69
293.697	-85.69
293.965	34.31
294.233	-42.69
294.501	-169.69
294.768	-85.69
295.036	50.31
295.304	15.31
295.572	-143.69
295.839	-109.69
296.107	95.31
296.375	-0.69
296.642	-142.69
296.91	-125.69
297.178	44.31
297.445	151.31
297.713	70.31
297.98	-82.69
298.248	-47.69
298.516	-56.69
298.783	-136.69
299.051	-142.69
299.318	-2.69
299.586	-55.69
299.853	-97.69
300.121	-82.69
300.388	27.31
300.656	-16.69
300.923	-165.69
301.191	-53.69
301.458	49.31
301.726	-13.69
301.993	-147.69
302.26	-100.69
302.528	35.31
302.795	-17.69
303.063	-88.69
303.33	-73.69
303.597	6.31
303.865	4.31
304.132	-132.69
304.399	-132.69
304.667	-37.69
304.934	-6.69
305.201	-124.69
305.469	-30.69
305.736	50.31
306.003	34.31
306.27	-56.69
306.538	-107.69
306.805	-9.69
307.072	-53.69
307.339	-98.69
307.606	-52.69
307.874	146.31
308.141	61.31
308.408	-132.69
308.675	-125.69
308.942	-70.69
309.209	-82.69
309.477	-141.69
309.744	-107.69
310.011	23.31
310.278	34.31
310.545	-48.69
310.812	-75.69
311.079	111.31
311.346	191.31
311.613	46.31
311.88	-41.69
312.147	-72.69
312.414	-57.69
312.681	-127.69
312.948	-41.69
313.215	115.31
313.482	77.31
313.749	-108.69
314.016	-208.69
314.283	-63.69
314.55	42.31
314.817	-110.69
315.083	-122.69
315.35	-85.69
315.617	-153.69
315.884	-163.69
316.151	44.31
316.418	147.31
316.684	-40.69
316.951	-214.69
317.218	-132.69
317.485	-10.69
317.752	-65.69
318.018	-115.69
318.285	-29.69
318.552	6.31
318.819	-76.69
319.085	-136.69
319.352	-56.69
319.619	34.31
319.885	-26.69
320.152	-209.69
320.419	-127.69
320.685	14.31
320.952	-45.69
321.219	-81.69
321.485	64.31
321.752	6.31
322.019	-63.69
322.285	26.31
322.552	-10.69
322.818	121.31
323.085	-26.69
323.351	-143.69
323.618	-27.69
323.884	36.31
324.151	-80.69
324.417	-48.69
324.684	-96.69
324.95	-71.69
325.217	-159.69
325.483	-196.69
325.75	-49.69
326.016	-13.69
326.283	-47.69
326.549	-209.69
326.815	-93.69
327.082	93.31
327.348	10.31
327.615	-115.69
327.881	-45.69
328.147	110.31
328.414	122.31
328.68	-8.69
328.946	-61.69
329.212	14.31
329.479	-4.69
329.745	-133.69
330.011	-129.69
330.278	-1.69
330.544	-59.69
330.81	-57.69
331.076	-59.69
331.342	-49.69
331.609	-32.69
331.875	-101.69
332.141	-114.69
332.407	15.31
332.673	-17.69
332.94	-32.69
333.206	-53.69
333.472	48.31
333.738	57.31
334.004	-124.69
334.27	-42.69
334.536	-17.69
334.802	-64.69
335.068	-129.69
335.334	-14.69
335.6	5.31
335.866	-48.69
336.132	-195.69
336.398	-104.69
336.664	-28.69
336.93	-55.69
337.196	-95.69
337.462	-26.69
337.728	10.31
337.994	-69.69
338.26	-114.69
338.526	-54.69
338.792	-55.69
339.058	-56.69
339.324	-159.69
339.59	-37.69
339.856	38.31
340.121	-74.69
340.387	-154.69
340.653	64.31
340.919	129.31
341.185	44.31
341.45	-82.69
341.716	5.31
341.982	93.31
342.248	-72.69
342.514	-98.69
342.779	-5.69
343.045	8.31
343.311	-40.69
343.576	-107.69
343.842	-63.69
344.108	109.31
344.374	-3.69
344.639	-131.69
344.905	-100.69
345.171	46.31
345.436	-66.69
345.702	-112.69
345.967	40.31
346.233	74.31
346.499	13.31
346.764	-187.69
347.03	-90.69
347.295	-62.69
347.561	-16.69
347.826	-63.69
348.092	-153.69
348.357	-42.69
348.623	-41.69
348.888	-144.69
349.154	-116.69
349.419	18.31
349.685	-17.69
349.95	-100.69
350.216	-75.69
350.481	24.31
350.747	-69.69
351.012	-186.69
351.277	-108.69
351.543	10.31
351.808	-59.69
352.074	-216.69
352.339	-150.69
352.604	31.31
352.87	-13.69
353.135	-141.69
353.4	-99.69
353.666	-43.69
353.931	-66.69
354.196	-175.69
354.461	-159.69
354.727	0.31
354.992	-26.69
355.257	-183.69
355.522	-70.69
355.788	-33.69
356.053	23.31
356.318	-121.69
356.583	-147.69
356.848	64.31
357.113	170.31
357.379	-104.69
357.644	-132.69
357.909	58.31
358.174	81.31
358.439	-180.69
358.704	-111.69
358.969	10.31
359.234	14.31
359.499	-159.69
359.765	-79.69
360.03	31.31
360.295	30.31
360.56	-151.69
360.825	-89.69
361.09	106.31
361.355	-83.69
361.62	-114.69
361.885	-79.69
362.15	-99.69
362.415	-82.69
362.679	-161.69
362.944	6.31
363.209	27.31
363.474	43.31
363.739	-27.69
364.004	-133.69
364.269	-60.69
364.534	-15.69
364.799	-81.69
365.063	-68.69
365.328	22.31
365.593	17.31
365.858	-117.69
366.123	-107.69
366.387	19.31
366.652	-49.69
366.917	-170.69
367.182	-123.69
367.447	25.31
367.711	-32.69
367.976	-95.69
368.241	-30.69
368.505	30.31
368.77	-68.69
369.035	-91.69
369.299	-31.69
369.564	-15.69
369.829	-80.69
370.093	-112.69
370.358	-120.69
370.623	-24.69
370.887	-17.69
371.152	-180.69
371.416	-104.69
371.681	-47.69
371.946	-145.69
372.21	-179.69
372.475	-40.69
372.739	-8.69
373.004	-76.69
373.268	-120.69
373.533	-43.69
373.797	-14.69
374.062	-18.69
374.326	-177.69
374.591	-88.69
374.855	-8.69
375.12	-85.69
375.384	-234.69
375.648	-149.69
375.913	-15.69
376.177	8.31
376.442	-127.69
376.706	-129.69
376.97	7.31
377.235	-45.69
377.499	-73.69
377.763	-88.69
378.028	-96.69
378.292	-53.69
378.556	-135.69
378.821	-208.69
379.085	-129.69
379.349	-182.69
379.614	-244.69
379.878	-122.69
380.142	54.31
380.406	-38.69
380.671	-59.69
380.935	63.31
381.199	157.31
381.463	33.31
381.727	-26.69
381.991	-74.69
382.256	-21.69
382.52	-67.69
382.784	-49.69
383.048	68.31
383.312	-0.69
383.576	-49.69
383.84	-163.69
384.104	-113.69
384.369	-13.69
384.633	-141.69
384.897	-230.69
385.161	-93.69
385.425	16.31
385.689	-69.69
385.953	-116.69
386.217	-156.69
386.481	-52.69
386.745	-36.69
387.009	-94.69
387.273	-130.69
387.537	-93.69
387.801	-66.69
388.064	-134.69
388.328	-41.69
388.592	13.31
388.856	-62.69
389.12	-145.69
389.384	-63.69
389.648	-33.69
389.912	34.31
390.176	21.31
390.439	98.31
390.703	-66.69
390.967	-100.69
391.231	-183.69
391.495	-143.69
391.758	-69.69
392.022	-60.69
392.286	-184.69
392.55	-157.69
392.813	-40.69
393.077	6.31
393.341	-72.69
393.605	-7.69
393.868	-54.69
394.132	-65.69
394.396	-99.69
394.659	27.31
394.923	-37.69
395.187	-98.69
395.45	-122.69
395.714	-73.69
395.978	-35.69
396.241	-31.69
396.505	-109.69
396.768	-64.69
397.032	-3.69
397.295	0.31
397.559	-101.69
397.823	-132.69
398.086	4.31
398.35	-56.69
398.613	-163.69
398.877	-37.69
399.14	76.31
399.404	77.31
399.667	-14.69
399.931	-108.69
400.194	-12.69
400.457	-50.69
400.721	-85.69
400.984	7.31
401.248	-42.69
401.511	-69.69
401.775	-183.69
402.038	-121.69
402.301	67.31
402.565	-7.69
402.828	-207.69
403.091	-121.69
403.355	-25.69
403.618	-22.69
403.881	-20.69
404.145	-72.69
404.408	6.31
404.671	-34.69
404.934	-39.69
405.198	-10.69
405.461	-3.69
405.724	21.31
405.987	-3.69
406.251	2.31
406.514	72.31
406.777	-54.69
407.04	-131.69
407.303	-126.69
407.567	13.31
407.83	81.31
408.093	-131.69
408.356	-39.69
408.619	17.31
408.882	69.31
409.145	-33.69
409.408	-65.69
409.672	24.31
409.935	-31.69
410.198	-148.69
410.461	-71.69
410.724	65.31
410.987	-13.69
411.25	-152.69
411.513	-39.69
411.776	20.31
412.039	-96.69
412.302	-154.69
412.565	-125.69
412.828	-65.69
413.091	-72.69
413.354	-149.69
413.617	-128.69
413.879	-62.69
414.142	-38.69
414.405	-158.69
414.668	-80.69
414.931	32.31
415.194	-1.69
415.457	-128.69
415.72	-71.69
415.983	-22.69
416.245	-23.69
416.508	-117.69
416.771	-146.69
417.034	-3.69
417.297	-0.69
417.559	-57.69
417.822	-83.69
418.085	5.31
418.348	-7.69
418.61	-170.69
418.873	-131.69
419.136	-91.69
419.399	-103.69
419.661	-83.69
419.924	-108.69
420.187	-5.69
420.449	-29.69
420.712	-103.69
420.975	-152.69
421.237	-44.69
421.5	-52.69
421.762	-13.69
422.025	45.31
422.288	70.31
422.55	-113.69
422.813	-196.69
423.075	-102.69
423.338	-42.69
423.601	-12.69
423.863	-63.69
424.126	-58.69
424.388	41.31
424.651	-23.69
424.913	-79.69
425.176	-87.69
425.438	-59.69
425.701	21.31
425.963	-134.69
426.225	-171.69
426.488	-63.69
426.75	-82.69
427.013	-150.69
427.275	-101.69
427.538	-65.69
427.8	-73.69
428.062	-156.69
428.325	-78.69
428.587	15.31
428.849	-40.69
429.112	-106.69
429.374	-131.69
429.636	-64.69
429.899	20.31
430.161	-114.69
430.423	-71.69
430.686	32.31
430.948	-12.69
431.21	-141.69
431.472	-160.69
431.735	-85.69
431.997	-86.69
432.259	-37.69
432.521	-123.69
432.783	-48.69
433.046	-47.69
433.308	-125.69
433.57	-101.69
433.832	137.31
434.094	-62.69
434.356	-191.69
434.618	-115.69
434.881	-41.69
435.143	-97.69
435.405	-71.69
435.667	-38.69
435.929	-30.69
436.191	-59.69
436.453	-153.69
436.715	-66.69
436.977	-2.69
437.239	-62.69
437.501	-186.69
437.763	-150.69
438.025	-18.69
438.287	-22.69
438.549	-124.69
438.811	-91.69
439.073	-45.69
439.335	-112.69
439.597	-135.69
439.859	-47.69
440.121	73.31
440.383	-128.69
440.645	-136.69
440.907	-73.69
441.168	-31.69
441.43	-80.69
441.692	-167.69
441.954	-131.69
442.216	-70.69
442.478	-86.69
442.74	-185.69
443.001	-71.69
443.263	77.31
443.525	9.31
443.787	-125.69
444.048	-110.69
444.31	-78.69
444.572	-83.69
444.834	-106.69
445.095	-107.69
445.357	23.31
445.619	-22.69
445.881	-228.69
446.142	-155.69
446.404	-96.69
446.666	-82.69
446.927	-93.69
447.189	45.31
447.451	46.31
447.712	-31.69
447.974	-239.69
448.235	-193.69
448.497	-55.69
448.759	-126.69
449.02	-192.69
449.282	-218.69
449.543	-31.69
449.805	28.31
450.066	-198.69
450.328	-97.69
450.59	82.31
450.851	-35.69
451.113	-72.69
451.374	-144.69
451.636	-7.69
451.897	12.31
452.158	-61.69
452.42	41.31
452.681	69.31
452.943	-121.69
453.204	-204.69
453.466	-191.69
453.727	-90.69
453.988	-49.69
454.25	-177.69
454.511	-197.69
454.773	-84.69
455.034	52.31
455.295	-152.69
455.557	-162.69
455.818	-72.69
456.079	-44.69
456.341	60.31
456.602	25.31
456.863	17.31
457.124	-56.69
457.386	-165.69
457.647	-175.69
457.908	-80.69
458.169	18.31
458.431	-181.69
458.692	-192.69
458.953	-69.69
459.214	-101.69
459.476	-99.69
459.737	-28.69
459.998	6.31
460.259	-93.69
460.52	-187.69
460.781	-125.69
461.043	35.31
461.304	-100.69
461.565	-198.69
461.826	-146.69
462.087	-32.69
462.348	-5.69
462.609	-121.69
462.87	-58.69
463.131	-87.69
463.392	-28.69
463.653	-109.69
463.914	-65.69
464.175	-30.69
464.436	-87.69
464.697	-154.69
464.958	-132.69
465.219	-28.69
465.48	-48.69
465.741	-82.69
466.002	-123.69
466.263	-67.69
466.524	-56.69
466.785	-148.69
467.046	-113.69
467.307	-20.69
467.568	-114.69
467.829	-124.69
468.089	-78.69
468.35	-33.69
468.611	-98.69
468.872	-178.69
469.133	-47.69
469.394	13.31
469.655	57.31
469.915	-113.69
470.176	-189.69
470.437	-149.69
470.698	-60.69
470.958	-139.69
471.219	-194.69
471.48	-93.69
471.741	-98.69
472.001	-174.69
472.262	-125.69
472.523	0.31
472.784	29.31
473.044	-124.69
473.305	-82.69
473.566	33.31
473.826	-11.69
474.087	-131.69
474.348	-118.69
474.608	-50.69
474.869	-8.69
475.129	-132.69
475.39	-163.69
475.651	-64.69
475.911	-34.69
476.172	-172.69
476.432	-77.69
476.693	57.31
476.953	-30.69
477.214	-35.69
477.475	-20.69
477.735	-20.69
477.996	-15.69
478.256	-202.69
478.517	-164.69
478.777	-61.69
479.038	-8.69
479.298	-21.69
479.558	-104.69
479.819	59.31
480.079	50.31
480.34	-56.69
480.6	-130.69
480.861	-23.69
481.121	-49.69
481.381	-153.69
481.642	-83.69
481.902	-69.69
482.162	-127.69
482.423	-101.69
482.683	-17.69
482.943	-1.69
483.204	-103.69
483.464	-138.69
483.724	-87.69
483.985	-47.69
484.245	-12.69
484.505	-96.69
484.765	-39.69
485.026	33.31
485.286	4.31
485.546	-75.69
485.806	-9.69
486.067	11.31
486.327	-113.69
486.587	-178.69
486.847	-158.69
487.107	-37.69
487.368	-38.69
487.628	-92.69
487.888	-99.69
488.148	4.31
488.408	-89.69
488.668	-70.69
488.928	-35.69
489.188	-28.69
489.449	61.31
489.709	-111.69
489.969	-120.69
490.229	-1.69
490.489	-23.69
490.749	-127.69
491.009	-194.69
491.269	-103.69
491.529	-79.69
491.789	-175.69
492.049	-70.69
492.309	39.31
492.569	-73.69
492.829	-101.69
493.089	-119.69
493.349	45.31
493.609	-37.69
493.869	-141.69
494.129	-82.69
494.389	42.31
494.648	-81.69
494.908	-172.69
495.168	-94.69
495.428	31.31
495.688	-55.69
495.948	-202.69
496.208	-194.69
496.467	-130.69
496.727	-75.69
496.987	-84.69
497.247	-91.69
497.507	-10.69
497.767	10.31
498.026	-181.69
498.286	-55.69
498.546	133.31
498.806	-5.69
499.065	21.31
499.325	-44.69
499.585	-55.69
499.845	-53.69
500.104	-61.69
500.364	58.31
500.624	9.31
500.883	-73.69
501.143	-33.69
501.403	14.31
501.662	83.31
501.922	-15.69
502.182	-141.69
502.441	-151.69
502.701	-83.69
502.96	21.31
503.22	-59.69
503.48	-103.69
503.739	-18.69
503.999	-54.69
504.258	-138.69
504.518	-71.69
504.777	25.31
505.037	-43.69
505.296	-117.69
505.556	-130.69
505.815	20.31
506.075	94.31
506.334	-8.69
506.594	-169.69
506.853	-107.69
507.113	-104.69
507.372	-231.69
507.632	-170.69
507.891	-66.69
508.151	-12.69
508.41	-168.69
508.669	-120.69
508.929	4.31
509.188	-55.69
509.447	-106.69
509.707	-147.69
509.966	-59.69
510.226	-40.69
510.485	-85.69
510.744	-79.69
511.004	0.31
511.263	-77.69
511.522	-157.69
511.781	-123.69
512.041	8.31
512.3	-61.69
512.559	-34.69
512.818	-5.69
513.078	0.31
513.337	-25.69
513.596	-98.69
513.855	-117.69
514.115	12.31
514.374	-29.69
514.633	-158.69
514.892	-191.69
515.151	-46.69
515.41	14.31
515.67	-84.69
515.929	-130.69
516.188	-31.69
516.447	-59.69
516.706	-131.69
516.965	-121.69
517.224	-73.69
517.483	-65.69
517.743	-113.69
518.002	-82.69
518.261	8.31
518.52	-51.69
518.779	-156.69
519.038	-131.69
519.297	-88.69
519.556	-83.69
519.815	-165.69
520.074	-176.69
520.333	-71.69
520.592	-85.69
520.851	-167.69
521.11	-59.69
521.369	95.31
521.628	-74.69
521.887	-160.69
522.145	-101.69
522.404	-47.69
522.663	-51.69
522.922	-198.69
523.181	-185.69
523.44	-44.69
523.699	-7.69
523.958	-182.69
524.217	-153.69
524.475	-118.69
524.734	-153.69
524.993	-177.69
525.252	-112.69
525.511	-39.69
525.769	-83.69
526.028	-158.69
526.287	-100.69
526.546	-49.69
526.805	-65.69
527.063	-147.69
527.322	-171.69
527.581	-83.69
527.839	-76.69
528.098	-78.69
528.357	-55.69
528.616	-58.69
528.874	-87.69
529.133	-115.69
529.392	-87.69
529.65	-35.69
529.909	-54.69
530.168	-162.69
530.426	-128.69
530.685	17.31
530.943	-33.69
531.202	-157.69
531.461	-145.69
531.719	0.31
531.978	-61.69
532.236	-149.69
532.495	-69.69
532.753	-13.69
533.012	-102.69
533.271	-172.69
533.529	-167.69
533.788	-71.69
534.046	-167.69
534.305	-196.69
534.563	21.31
534.822	90.31
535.08	-32.69
535.338	-126.69
535.597	-90.69
535.855	-7.69
536.114	-65.69
536.372	-155.69
536.631	-89.69
536.889	-0.69
537.147	-54.69
