Data from HR4C21111__38__10-12-03-769.txt Node

Date: Mon Feb 22 10:12:03 IST 2021
User: Kapil
Spectrometer: HR4C2111
Trigger mode: 4
Integration Time (sec): 2.300000E0
Scans to average: 1
Electric dark correction enabled: true
Nonlinearity correction enabled: false
Boxcar width: 0
XAxis mode: Wavelengths
Number of Pixels in Spectrum: 3648
>>>>>Begin Spectral Data<<<<<
189.472	-444.46
189.745	-444.46
190.017	-444.46
190.289	-465.46
190.561	-299.46
190.834	-20.46
191.106	-125.46
191.378	16.54
191.65	20.54
191.923	-139.46
192.195	-96.46
192.467	126.54
192.739	104.54
193.011	-38.46
193.284	72.54
193.556	183.54
193.828	-7.46
194.1	-96.46
194.372	-107.46
194.644	59.54
194.916	78.54
195.188	-149.46
195.46	-78.46
195.732	45.54
196.004	-23.46
196.276	-107.46
196.548	-66.46
196.82	73.54
197.092	47.54
197.364	-120.46
197.636	-89.46
197.908	23.54
198.18	-48.46
198.452	-98.46
198.724	-54.46
198.996	54.54
199.268	78.54
199.54	-26.46
199.811	-112.46
200.083	86.54
200.355	31.54
200.627	-201.46
200.899	-76.46
201.171	36.54
201.442	-55.46
201.714	-179.46
201.986	-103.46
202.258	54.54
202.529	108.54
202.801	0.54
203.073	77.54
203.345	180.54
203.616	9.54
203.888	-148.46
204.16	-145.46
204.431	92.54
204.703	5.54
204.974	-146.46
205.246	-14.46
205.518	165.54
205.789	-7.46
206.061	-146.46
206.332	-117.46
206.604	9.54
206.876	103.54
207.147	145.54
207.419	17.54
207.69	127.54
207.962	-46.46
208.233	-190.46
208.505	-13.46
208.776	157.54
209.047	84.54
209.319	-123.46
209.59	-90.46
209.862	139.54
210.133	31.54
210.404	-142.46
210.676	-92.46
210.947	72.54
211.219	53.54
211.49	-129.46
211.761	-47.46
212.033	37.54
212.304	-34.46
212.575	-181.46
212.846	-86.46
213.118	28.54
213.389	-60.46
213.66	-117.46
213.931	-43.46
214.203	38.54
214.474	-34.46
214.745	-119.46
215.016	133.54
215.287	447.54
215.559	76.54
215.83	-112.46
216.101	-68.46
216.372	3.54
216.643	72.54
216.914	28.54
217.185	-86.46
217.456	145.54
217.727	13.54
217.998	-161.46
218.269	-66.46
218.54	30.54
218.811	-18.46
219.082	-103.46
219.353	-77.46
219.624	-28.46
219.895	-38.46
220.166	-135.46
220.437	-108.46
220.708	94.54
220.979	-15.46
221.25	-146.46
221.521	-86.46
221.792	29.54
222.063	92.54
222.334	52.54
222.604	173.54
222.875	158.54
223.146	83.54
223.417	-181.46
223.688	-33.46
223.958	138.54
224.229	-59.46
224.5	-191.46
224.771	-61.46
225.041	81.54
225.312	40.54
225.583	-112.46
225.854	-64.46
226.124	92.54
226.395	-0.46
226.666	-139.46
226.936	-107.46
227.207	52.54
227.478	-51.46
227.748	-98.46
228.019	38.54
228.289	257.54
228.56	-35.46
228.831	-38.46
229.101	77.54
229.372	62.54
229.642	-28.46
229.913	-170.46
230.183	-139.46
230.454	-10.46
230.724	-4.46
230.995	-95.46
231.265	-73.46
231.536	65.54
231.806	46.54
232.076	-114.46
232.347	-134.46
232.617	23.54
232.888	33.54
233.158	-63.46
233.428	-118.46
233.699	-18.46
233.969	-50.46
234.239	-169.46
234.51	-99.46
234.78	38.54
235.05	-28.46
235.321	-125.46
235.591	-79.46
235.861	46.54
236.131	-59.46
236.402	-185.46
236.672	-90.46
236.942	40.54
237.212	40.54
237.483	-72.46
237.753	-6.46
238.023	166.54
238.293	10.54
238.563	-82.46
238.833	-104.46
239.103	63.54
239.374	-26.46
239.644	-141.46
239.914	-37.46
240.184	132.54
240.454	-18.46
240.724	-169.46
240.994	-64.46
241.264	15.54
241.534	62.54
241.804	-8.46
242.074	-85.46
242.344	-40.46
242.614	-64.46
242.884	-182.46
243.154	-119.46
243.424	49.54
243.694	67.54
243.964	-91.46
244.234	-68.46
244.503	123.54
244.773	7.54
245.043	-225.46
245.313	-144.46
245.583	116.54
245.853	88.54
246.123	-172.46
246.392	-115.46
246.662	-9.46
246.932	-30.46
247.202	-178.46
247.471	-59.46
247.741	272.54
248.011	127.54
248.281	-143.46
248.55	-105.46
248.82	53.54
249.09	-10.46
249.359	-103.46
249.629	-88.46
249.899	40.54
250.168	55.54
250.438	-18.46
250.708	-113.46
250.977	77.54
251.247	52.54
251.516	-127.46
251.786	-52.46
252.055	125.54
252.325	4.54
252.595	-110.46
252.864	-62.46
253.134	49.54
253.403	-32.46
253.673	-171.46
253.942	-111.46
254.212	36.54
254.481	-12.46
254.75	-145.46
255.02	-88.46
255.289	83.54
255.559	-16.46
255.828	-118.46
256.097	-35.46
256.367	16.54
256.636	-85.46
256.906	-159.46
257.175	-31.46
257.444	230.54
257.714	32.54
257.983	-94.46
258.252	-42.46
258.521	-0.46
258.791	29.54
259.06	-106.46
259.329	-50.46
259.598	63.54
259.868	4.54
260.137	-123.46
260.406	-24.46
260.675	84.54
260.944	16.54
261.214	-146.46
261.483	-44.46
261.752	179.54
262.021	-0.46
262.29	-181.46
262.559	-124.46
262.828	9.54
263.097	-63.46
263.366	-222.46
263.635	-97.46
263.905	132.54
264.174	24.54
264.443	-202.46
264.712	-133.46
264.981	28.54
265.25	-38.46
265.519	-140.46
265.788	-157.46
266.057	20.54
266.325	50.54
266.594	-54.46
266.863	-112.46
267.132	17.54
267.401	13.54
267.67	-194.46
267.939	-150.46
268.208	20.54
268.477	63.54
268.745	-127.46
269.014	-94.46
269.283	127.54
269.552	40.54
269.821	-121.46
270.089	-22.46
270.358	-30.46
270.627	-31.46
270.896	-148.46
271.164	-172.46
271.433	9.54
271.702	93.54
271.971	-145.46
272.239	-152.46
272.508	23.54
272.777	-43.46
273.045	-30.46
273.314	-26.46
273.583	95.54
273.851	-15.46
274.12	-165.46
274.388	-151.46
274.657	-11.46
274.926	-1.46
275.194	-162.46
275.463	-59.46
275.731	29.54
276	156.54
276.268	346.54
276.537	-97.46
276.805	28.54
277.074	45.54
277.342	-156.46
277.611	-93.46
277.879	107.54
278.148	29.54
278.416	-154.46
278.684	-130.46
278.953	-23.46
279.221	-33.46
279.49	-196.46
279.758	-106.46
280.026	-14.46
280.295	3.54
280.563	-133.46
280.831	739.54
281.1	1859.54
281.368	175.54
281.636	-97.46
281.904	-126.46
282.173	-10.46
282.441	-64.46
282.709	-95.46
282.977	22.54
283.246	47.54
283.514	-39.46
283.782	-64.46
284.05	32.54
284.318	47.54
284.587	-39.46
284.855	-128.46
285.123	-76.46
285.391	56.54
285.659	38.54
285.927	-143.46
286.195	-67.46
286.463	48.54
286.732	-19.46
287	-148.46
287.268	-62.46
287.536	10.54
287.804	-56.46
288.072	-147.46
288.34	-93.46
288.608	61.54
288.876	-36.46
289.144	-132.46
289.412	-10.46
289.68	53.54
289.948	-21.46
290.215	-125.46
290.483	-119.46
290.751	89.54
291.019	91.54
291.287	-176.46
291.555	-127.46
291.823	20.54
292.091	-24.46
292.358	-88.46
292.626	-33.46
292.894	67.54
293.162	33.54
293.43	-125.46
293.697	-91.46
293.965	44.54
294.233	-40.46
294.501	-177.46
294.768	-71.46
295.036	77.54
295.304	25.54
295.572	-143.46
295.839	-109.46
296.107	103.54
296.375	-12.46
296.642	-151.46
296.91	-134.46
297.178	39.54
297.445	155.54
297.713	85.54
297.98	-95.46
298.248	-43.46
298.516	-63.46
298.783	-139.46
299.051	-125.46
299.318	12.54
299.586	-29.46
299.853	-109.46
300.121	-105.46
300.388	24.54
300.656	-16.46
300.923	-153.46
301.191	-63.46
301.458	37.54
301.726	-16.46
301.993	-157.46
302.26	-97.46
302.528	56.54
302.795	-19.46
303.063	-102.46
303.33	-67.46
303.597	14.54
303.865	11.54
304.132	-144.46
304.399	-146.46
304.667	-32.46
304.934	-4.46
305.201	-110.46
305.469	-27.46
305.736	54.54
306.003	36.54
306.27	-56.46
306.538	-111.46
306.805	-22.46
307.072	-41.46
307.339	-92.46
307.606	-60.46
307.874	160.54
308.141	68.54
308.408	-135.46
308.675	-123.46
308.942	-57.46
309.209	-81.46
309.477	-143.46
309.744	-114.46
310.011	5.54
310.278	28.54
310.545	-25.46
310.812	-54.46
311.079	132.54
311.346	197.54
311.613	53.54
311.88	-51.46
312.147	-87.46
312.414	-60.46
312.681	-116.46
312.948	-32.46
313.215	116.54
313.482	57.54
313.749	-118.46
314.016	-213.46
314.283	-72.46
314.55	42.54
314.817	-114.46
315.083	-131.46
315.35	-89.46
315.617	-153.46
315.884	-140.46
316.151	73.54
316.418	166.54
316.684	-22.46
316.951	-192.46
317.218	-115.46
317.485	-7.46
317.752	-60.46
318.018	-129.46
318.285	-17.46
318.552	9.54
318.819	-54.46
319.085	-137.46
319.352	-56.46
319.619	35.54
319.885	-38.46
320.152	-212.46
320.419	-118.46
320.685	22.54
320.952	-42.46
321.219	-72.46
321.485	70.54
321.752	3.54
322.019	-66.46
322.285	37.54
322.552	-11.46
322.818	127.54
323.085	-17.46
323.351	-135.46
323.618	-28.46
323.884	21.54
324.151	-70.46
324.417	-53.46
324.684	-94.46
324.95	-67.46
325.217	-158.46
325.483	-199.46
325.75	-46.46
326.016	-19.46
326.283	-41.46
326.549	-192.46
326.815	-86.46
327.082	76.54
327.348	-6.46
327.615	-132.46
327.881	-40.46
328.147	115.54
328.414	123.54
328.68	9.54
328.946	-45.46
329.212	10.54
329.479	-12.46
329.745	-132.46
330.011	-125.46
330.278	-2.46
330.544	-50.46
330.81	-40.46
331.076	-34.46
331.342	-29.46
331.609	-37.46
331.875	-95.46
332.141	-111.46
332.407	4.54
332.673	-6.46
332.94	-29.46
333.206	-70.46
333.472	17.54
333.738	45.54
334.004	-127.46
334.27	-27.46
334.536	9.54
334.802	-53.46
335.068	-120.46
335.334	-0.46
335.6	15.54
335.866	-47.46
336.132	-182.46
336.398	-108.46
336.664	-23.46
336.93	-52.46
337.196	-108.46
337.462	-13.46
337.728	22.54
337.994	-56.46
338.26	-102.46
338.526	-49.46
338.792	-81.46
339.058	-61.46
339.324	-151.46
339.59	-10.46
339.856	52.54
340.121	-67.46
340.387	-121.46
340.653	85.54
340.919	135.54
341.185	49.54
341.45	-81.46
341.716	18.54
341.982	100.54
342.248	-65.46
342.514	-100.46
342.779	-5.46
343.045	21.54
343.311	-22.46
343.576	-99.46
343.842	-42.46
344.108	129.54
344.374	25.54
344.639	-112.46
344.905	-87.46
345.171	53.54
345.436	-75.46
345.702	-108.46
345.967	31.54
346.233	71.54
346.499	5.54
346.764	-183.46
347.03	-79.46
347.295	-41.46
347.561	-34.46
347.826	-72.46
348.092	-141.46
348.357	-50.46
348.623	-56.46
348.888	-150.46
349.154	-118.46
349.419	4.54
349.685	-10.46
349.95	-82.46
350.216	-60.46
350.481	14.54
350.747	-83.46
351.012	-191.46
351.277	-126.46
351.543	8.54
351.808	-48.46
352.074	-204.46
352.339	-156.46
352.604	3.54
352.87	-18.46
353.135	-142.46
353.4	-91.46
353.666	-32.46
353.931	-46.46
354.196	-166.46
354.461	-151.46
354.727	-1.46
354.992	-33.46
355.257	-179.46
355.522	-79.46
355.788	-26.46
356.053	31.54
356.318	-118.46
356.583	-132.46
356.848	66.54
357.113	174.54
357.379	-87.46
357.644	-116.46
357.909	55.54
358.174	67.54
358.439	-180.46
358.704	-112.46
358.969	18.54
359.234	22.54
359.499	-150.46
359.765	-87.46
360.03	27.54
360.295	13.54
360.56	-149.46
360.825	-91.46
361.09	115.54
361.355	-62.46
361.62	-111.46
361.885	-73.46
362.15	-96.46
362.415	-71.46
362.679	-132.46
362.944	8.54
363.209	19.54
363.474	45.54
363.739	-26.46
364.004	-122.46
364.269	-56.46
364.534	-5.46
364.799	-75.46
365.063	-75.46
365.328	26.54
365.593	22.54
365.858	-99.46
366.123	-125.46
366.387	21.54
366.652	-64.46
366.917	-171.46
367.182	-123.46
367.447	41.54
367.711	-3.46
367.976	-95.46
368.241	-21.46
368.505	30.54
368.77	-75.46
369.035	-81.46
369.299	-22.46
369.564	-16.46
369.829	-85.46
370.093	-117.46
370.358	-129.46
370.623	-8.46
370.887	-0.46
371.152	-156.46
371.416	-77.46
371.681	-41.46
371.946	-135.46
372.21	-163.46
372.475	-34.46
372.739	-0.46
373.004	-60.46
373.268	-111.46
373.533	-55.46
373.797	5.54
374.062	-14.46
374.326	-186.46
374.591	-86.46
374.855	8.54
375.12	-59.46
375.384	-245.46
375.648	-154.46
375.913	-19.46
376.177	1.54
376.442	-125.46
376.706	-111.46
376.97	3.54
377.235	-33.46
377.499	-86.46
377.763	-85.46
378.028	-97.46
378.292	-35.46
378.556	-127.46
378.821	-192.46
379.085	-110.46
379.349	-176.46
379.614	-240.46
379.878	-115.46
380.142	55.54
380.406	-42.46
380.671	-46.46
380.935	85.54
381.199	171.54
381.463	31.54
381.727	-17.46
381.991	-61.46
382.256	7.54
382.52	-43.46
382.784	-31.46
383.048	80.54
383.312	-0.46
383.576	-47.46
383.84	-165.46
384.104	-106.46
384.369	-21.46
384.633	-123.46
384.897	-231.46
385.161	-100.46
385.425	9.54
385.689	-71.46
385.953	-124.46
386.217	-150.46
386.481	-48.46
386.745	-40.46
387.009	-81.46
387.273	-127.46
387.537	-85.46
387.801	-48.46
388.064	-118.46
388.328	-56.46
388.592	-6.46
388.856	-71.46
389.12	-126.46
389.384	-66.46
389.648	-30.46
389.912	30.54
390.176	28.54
390.439	107.54
390.703	-56.46
390.967	-87.46
391.231	-174.46
391.495	-117.46
391.758	-51.46
392.022	-50.46
392.286	-175.46
392.55	-142.46
392.813	-31.46
393.077	14.54
393.341	-64.46
393.605	-4.46
393.868	-63.46
394.132	-67.46
394.396	-77.46
394.659	19.54
394.923	-30.46
395.187	-96.46
395.45	-114.46
395.714	-68.46
395.978	-38.46
396.241	-14.46
396.505	-115.46
396.768	-62.46
397.032	-7.46
397.295	-6.46
397.559	-91.46
397.823	-125.46
398.086	13.54
398.35	-58.46
398.613	-171.46
398.877	-17.46
399.14	92.54
399.404	87.54
399.667	-15.46
399.931	-95.46
400.194	-19.46
400.457	-38.46
400.721	-80.46
400.984	21.54
401.248	-40.46
401.511	-81.46
401.775	-181.46
402.038	-127.46
402.301	90.54
402.565	28.54
402.828	-198.46
403.091	-127.46
403.355	-19.46
403.618	-6.46
403.881	-10.46
404.145	-55.46
404.408	13.54
404.671	-39.46
404.934	-37.46
405.198	8.54
405.461	9.54
405.724	23.54
405.987	-11.46
406.251	25.54
406.514	103.54
406.777	-38.46
407.04	-131.46
407.303	-129.46
407.567	18.54
407.83	75.54
408.093	-128.46
408.356	-31.46
408.619	33.54
408.882	85.54
409.145	-33.46
409.408	-66.46
409.672	29.54
409.935	-42.46
410.198	-156.46
410.461	-63.46
410.724	83.54
410.987	-13.46
411.25	-152.46
411.513	-35.46
411.776	34.54
412.039	-86.46
412.302	-128.46
412.565	-116.46
412.828	-55.46
413.091	-60.46
413.354	-133.46
413.617	-116.46
413.879	-45.46
414.142	-28.46
414.405	-171.46
414.668	-88.46
414.931	38.54
415.194	9.54
415.457	-146.46
415.72	-72.46
415.983	-20.46
416.245	-26.46
416.508	-123.46
416.771	-150.46
417.034	11.54
417.297	9.54
417.559	-51.46
417.822	-81.46
418.085	10.54
418.348	4.54
418.61	-152.46
418.873	-132.46
419.136	-98.46
419.399	-110.46
419.661	-71.46
419.924	-100.46
420.187	-31.46
420.449	-50.46
420.712	-106.46
420.975	-143.46
421.237	-40.46
421.5	-43.46
421.762	-3.46
422.025	41.54
422.288	72.54
422.55	-125.46
422.813	-190.46
423.075	-106.46
423.338	-31.46
423.601	-4.46
423.863	-64.46
424.126	-51.46
424.388	52.54
424.651	-10.46
424.913	-82.46
425.176	-89.46
425.438	-52.46
425.701	35.54
425.963	-115.46
426.225	-160.46
426.488	-65.46
426.75	-78.46
427.013	-150.46
427.275	-100.46
427.538	-53.46
427.8	-79.46
428.062	-158.46
428.325	-73.46
428.587	18.54
428.849	-30.46
429.112	-99.46
429.374	-129.46
429.636	-61.46
429.899	12.54
430.161	-106.46
430.423	-68.46
430.686	21.54
430.948	-4.46
431.21	-132.46
431.472	-133.46
431.735	-68.46
431.997	-89.46
432.259	-53.46
432.521	-113.46
432.783	-27.46
433.046	-46.46
433.308	-154.46
433.57	-95.46
433.832	123.54
434.094	-63.46
434.356	-192.46
434.618	-106.46
434.881	-29.46
435.143	-78.46
435.405	-52.46
435.667	-35.46
435.929	-25.46
436.191	-71.46
436.453	-149.46
436.715	-66.46
436.977	0.54
437.239	-38.46
437.501	-162.46
437.763	-138.46
438.025	-2.46
438.287	-32.46
438.549	-118.46
438.811	-82.46
439.073	-45.46
439.335	-99.46
439.597	-113.46
439.859	-41.46
440.121	52.54
440.383	-113.46
440.645	-132.46
440.907	-63.46
441.168	-21.46
441.43	-69.46
441.692	-171.46
441.954	-120.46
442.216	-50.46
442.478	-76.46
442.74	-181.46
443.001	-76.46
443.263	76.54
443.525	11.54
443.787	-118.46
444.048	-97.46
444.31	-60.46
444.572	-86.46
444.834	-107.46
445.095	-103.46
445.357	20.54
445.619	-30.46
445.881	-228.46
446.142	-138.46
446.404	-59.46
446.666	-51.46
446.927	-125.46
447.189	-5.46
447.451	26.54
447.712	-35.46
447.974	-219.46
448.235	-174.46
448.497	-42.46
448.759	-128.46
449.02	-182.46
449.282	-194.46
449.543	-23.46
449.805	41.54
450.066	-197.46
450.328	-85.46
450.59	114.54
450.851	-19.46
451.113	-60.46
451.374	-133.46
451.636	1.54
451.897	21.54
452.158	-63.46
452.42	32.54
452.681	68.54
452.943	-114.46
453.204	-192.46
453.466	-177.46
453.727	-98.46
453.988	-62.46
454.25	-168.46
454.511	-195.46
454.773	-60.46
455.034	82.54
455.295	-133.46
455.557	-159.46
455.818	-53.46
456.079	-43.46
456.341	47.54
456.602	28.54
456.863	16.54
457.124	-53.46
457.386	-157.46
457.647	-156.46
457.908	-79.46
458.169	28.54
458.431	-159.46
458.692	-171.46
458.953	-62.46
459.214	-98.46
459.476	-106.46
459.737	-27.46
459.998	18.54
460.259	-68.46
460.52	-170.46
460.781	-110.46
461.043	40.54
461.304	-94.46
461.565	-195.46
461.826	-157.46
462.087	-54.46
462.348	-22.46
462.609	-129.46
462.87	-56.46
463.131	-85.46
463.392	-14.46
463.653	-88.46
463.914	-52.46
464.175	-30.46
464.436	-89.46
464.697	-164.46
464.958	-129.46
465.219	-40.46
465.48	-63.46
465.741	-84.46
466.002	-132.46
466.263	-65.46
466.524	-63.46
466.785	-153.46
467.046	-127.46
467.307	-38.46
467.568	-100.46
467.829	-100.46
468.089	-60.46
468.35	-27.46
468.611	-91.46
468.872	-174.46
469.133	-45.46
469.394	35.54
469.655	70.54
469.915	-107.46
470.176	-177.46
470.437	-120.46
470.698	-52.46
470.958	-120.46
471.219	-178.46
471.48	-102.46
471.741	-107.46
472.001	-163.46
472.262	-106.46
472.523	9.54
472.784	45.54
473.044	-117.46
473.305	-85.46
473.566	28.54
473.826	0.54
474.087	-119.46
474.348	-103.46
474.608	-38.46
474.869	5.54
475.129	-115.46
475.39	-134.46
475.651	-47.46
475.911	-13.46
476.172	-176.46
476.432	-62.46
476.693	73.54
476.953	-6.46
477.214	-26.46
477.475	-16.46
477.735	-14.46
477.996	5.54
478.256	-181.46
478.517	-158.46
478.777	-54.46
479.038	23.54
479.298	-10.46
479.558	-101.46
479.819	47.54
480.079	56.54
480.34	-35.46
480.6	-115.46
480.861	-22.46
481.121	-43.46
481.381	-130.46
481.642	-67.46
481.902	-71.46
482.162	-121.46
482.423	-99.46
482.683	-18.46
482.943	10.54
483.204	-85.46
483.464	-118.46
483.724	-85.46
483.985	-38.46
484.245	2.54
484.505	-80.46
484.765	-18.46
485.026	73.54
485.286	56.54
485.546	-37.46
485.806	5.54
486.067	21.54
486.327	-107.46
486.587	-166.46
486.847	-152.46
487.107	-43.46
487.368	-18.46
487.628	-77.46
487.888	-80.46
488.148	9.54
488.408	-90.46
488.668	-69.46
488.928	-18.46
489.188	-10.46
489.449	68.54
489.709	-95.46
489.969	-110.46
490.229	-15.46
490.489	-48.46
490.749	-116.46
491.009	-176.46
491.269	-92.46
491.529	-85.46
491.789	-164.46
492.049	-74.46
492.309	56.54
492.569	-73.46
492.829	-105.46
493.089	-112.46
493.349	43.54
493.609	-48.46
493.869	-132.46
494.129	-57.46
494.389	47.54
494.648	-74.46
494.908	-172.46
495.168	-87.46
495.428	46.54
495.688	-34.46
495.948	-208.46
496.208	-178.46
496.467	-114.46
496.727	-72.46
496.987	-85.46
497.247	-91.46
497.507	3.54
497.767	36.54
498.026	-149.46
498.286	-53.46
498.546	140.54
498.806	1.54
499.065	45.54
499.325	-17.46
499.585	-30.46
499.845	-54.46
500.104	-45.46
500.364	64.54
500.624	7.54
500.883	-71.46
501.143	-62.46
501.403	6.54
501.662	110.54
501.922	2.54
502.182	-142.46
502.441	-147.46
502.701	-63.46
502.96	37.54
503.22	-47.46
503.48	-82.46
503.739	-9.46
503.999	-61.46
504.258	-146.46
504.518	-80.46
504.777	31.54
505.037	-33.46
505.296	-84.46
505.556	-85.46
505.815	46.54
506.075	109.54
506.334	1.54
506.594	-157.46
506.853	-87.46
507.113	-73.46
507.372	-213.46
507.632	-144.46
507.891	-40.46
508.151	-1.46
508.41	-167.46
508.669	-116.46
508.929	32.54
509.188	-24.46
509.447	-84.46
509.707	-120.46
509.966	-34.46
510.226	-24.46
510.485	-75.46
510.744	-62.46
511.004	1.54
511.263	-77.46
511.522	-147.46
511.781	-112.46
512.041	20.54
512.3	-43.46
512.559	-28.46
512.818	15.54
513.078	9.54
513.337	-16.46
513.596	-86.46
513.855	-100.46
514.115	24.54
514.374	-31.46
514.633	-151.46
514.892	-163.46
515.151	-9.46
515.41	29.54
515.67	-83.46
515.929	-121.46
516.188	-18.46
516.447	-50.46
516.706	-132.46
516.965	-92.46
517.224	-60.46
517.483	-64.46
517.743	-102.46
518.002	-55.46
518.261	32.54
518.52	-26.46
518.779	-137.46
519.038	-111.46
519.297	-58.46
519.556	-82.46
519.815	-165.46
520.074	-159.46
520.333	-49.46
520.592	-65.46
520.851	-158.46
521.11	-28.46
521.369	113.54
521.628	-65.46
521.887	-143.46
522.145	-94.46
522.404	-44.46
522.663	-51.46
522.922	-191.46
523.181	-167.46
523.44	-31.46
523.699	-12.46
523.958	-165.46
524.217	-133.46
524.475	-103.46
524.734	-143.46
524.993	-154.46
525.252	-85.46
525.511	-29.46
525.769	-80.46
526.028	-156.46
526.287	-97.46
526.546	-39.46
526.805	-70.46
527.063	-147.46
527.322	-168.46
527.581	-75.46
527.839	-59.46
528.098	-50.46
528.357	-38.46
528.616	-51.46
528.874	-54.46
529.133	-112.46
529.392	-69.46
529.65	-27.46
529.909	-52.46
530.168	-152.46
530.426	-129.46
530.685	12.54
530.943	-29.46
531.202	-152.46
531.461	-141.46
531.719	15.54
531.978	-45.46
532.236	-133.46
532.495	-55.46
532.753	6.54
533.012	-85.46
533.271	-172.46
533.529	-158.46
533.788	-82.46
534.046	-153.46
534.305	-179.46
534.563	31.54
534.822	104.54
535.08	-9.46
535.338	-119.46
535.597	-81.46
535.855	-8.46
536.114	-57.46
536.372	-153.46
536.631	-86.46
536.889	28.54
537.147	-28.46
537.406	-210.46
537.664	-85.46
537.923	-39.46
