Data from HR4C21111__8__09-41-10-162.txt Node

Date: Mon Feb 22 09:41:10 IST 2021
User: Kapil
Spectrometer: HR4C2111
Trigger mode: 4
Integration Time (sec): 2.300000E0
Scans to average: 1
Electric dark correction enabled: true
Nonlinearity correction enabled: false
Boxcar width: 0
XAxis mode: Wavelengths
Number of Pixels in Spectrum: 3648
>>>>>Begin Spectral Data<<<<<
189.472	-439.38
189.745	-439.38
190.017	-439.38
190.289	-461.38
190.561	-293.38
190.834	-30.38
191.106	-115.38
191.378	17.62
191.65	9.62
191.923	-138.38
192.195	-92.38
192.467	122.62
192.739	106.62
193.011	-25.38
193.284	83.62
193.556	179.62
193.828	-10.38
194.1	-107.38
194.372	-120.38
194.644	57.62
194.916	66.62
195.188	-154.38
195.46	-88.38
195.732	55.62
196.004	-4.38
196.276	-112.38
196.548	-65.38
196.82	84.62
197.092	53.62
197.364	-142.38
197.636	-91.38
197.908	27.62
198.18	-40.38
198.452	-89.38
198.724	-40.38
198.996	56.62
199.268	66.62
199.54	-36.38
199.811	-120.38
200.083	90.62
200.355	14.62
200.627	-184.38
200.899	-65.38
201.171	54.62
201.442	-53.38
201.714	-185.38
201.986	-111.38
202.258	58.62
202.529	107.62
202.801	1.62
203.073	74.62
203.345	178.62
203.616	0.62
203.888	-141.38
204.16	-145.38
204.431	75.62
204.703	-7.38
204.974	-135.38
205.246	1.62
205.518	180.62
205.789	8.62
206.061	-121.38
206.332	-101.38
206.604	7.62
206.876	88.62
207.147	117.62
207.419	21.62
207.69	138.62
207.962	-28.38
208.233	-179.38
208.505	14.62
208.776	186.62
209.047	85.62
209.319	-123.38
209.59	-86.38
209.862	151.62
210.133	54.62
210.404	-146.38
210.676	-94.38
210.947	97.62
211.219	72.62
211.49	-123.38
211.761	-52.38
212.033	33.62
212.304	-34.38
212.575	-180.38
212.846	-78.38
213.118	20.62
213.389	-54.38
213.66	-104.38
213.931	-50.38
214.203	32.62
214.474	-35.38
214.745	-119.38
215.016	138.62
215.287	434.62
215.559	70.62
215.83	-106.38
216.101	-58.38
216.372	16.62
216.643	81.62
216.914	4.62
217.185	-81.38
217.456	146.62
217.727	13.62
217.998	-155.38
218.269	-57.38
218.54	34.62
218.811	-16.38
219.082	-116.38
219.353	-77.38
219.624	-8.38
219.895	-30.38
220.166	-140.38
220.437	-109.38
220.708	93.62
220.979	-6.38
221.25	-138.38
221.521	-90.38
221.792	20.62
222.063	69.62
222.334	28.62
222.604	167.62
222.875	159.62
223.146	81.62
223.417	-173.38
223.688	-24.38
223.958	131.62
224.229	-42.38
224.5	-182.38
224.771	-73.38
225.041	90.62
225.312	54.62
225.583	-80.38
225.854	-50.38
226.124	85.62
226.395	-5.38
226.666	-130.38
226.936	-113.38
227.207	68.62
227.478	-47.38
227.748	-114.38
228.019	40.62
228.289	234.62
228.56	-16.38
228.831	-29.38
229.101	42.62
229.372	53.62
229.642	-22.38
229.913	-164.38
230.183	-125.38
230.454	-3.38
230.724	-13.38
230.995	-102.38
231.265	-54.38
231.536	69.62
231.806	39.62
232.076	-107.38
232.347	-105.38
232.617	34.62
232.888	25.62
233.158	-69.38
233.428	-119.38
233.699	-8.38
233.969	-47.38
234.239	-159.38
234.51	-81.38
234.78	45.62
235.05	-9.38
235.321	-110.38
235.591	-69.38
235.861	59.62
236.131	-40.38
236.402	-188.38
236.672	-85.38
236.942	50.62
237.212	59.62
237.483	-48.38
237.753	16.62
238.023	167.62
238.293	23.62
238.563	-65.38
238.833	-99.38
239.103	62.62
239.374	-14.38
239.644	-140.38
239.914	-30.38
240.184	135.62
240.454	-9.38
240.724	-173.38
240.994	-63.38
241.264	22.62
241.534	56.62
241.804	-6.38
242.074	-76.38
242.344	-23.38
242.614	-49.38
242.884	-179.38
243.154	-126.38
243.424	44.62
243.694	76.62
243.964	-98.38
244.234	-77.38
244.503	136.62
244.773	34.62
245.043	-202.38
245.313	-128.38
245.583	118.62
245.853	93.62
246.123	-168.38
246.392	-102.38
246.662	10.62
246.932	-15.38
247.202	-174.38
247.471	-58.38
247.741	272.62
248.011	112.62
248.281	-143.38
248.55	-85.38
248.82	71.62
249.09	3.62
249.359	-79.38
249.629	-68.38
249.899	55.62
250.168	41.62
250.438	-41.38
250.708	-100.38
250.977	79.62
251.247	55.62
251.516	-119.38
251.786	-57.38
252.055	123.62
252.325	26.62
252.595	-105.38
252.864	-72.38
253.134	35.62
253.403	-25.38
253.673	-160.38
253.942	-108.38
254.212	25.62
254.481	-11.38
254.75	-150.38
255.02	-94.38
255.289	63.62
255.559	-18.38
255.828	-112.38
256.097	-16.38
256.367	38.62
256.636	-53.38
256.906	-142.38
257.175	-7.38
257.444	246.62
257.714	57.62
257.983	-80.38
258.252	-45.38
258.521	10.62
258.791	57.62
259.06	-94.38
259.329	-42.38
259.598	72.62
259.868	-9.38
260.137	-116.38
260.406	9.62
260.675	95.62
260.944	28.62
261.214	-134.38
261.483	-46.38
261.752	179.62
262.021	17.62
262.29	-154.38
262.559	-124.38
262.828	19.62
263.097	-36.38
263.366	-196.38
263.635	-90.38
263.905	131.62
264.174	11.62
264.443	-202.38
264.712	-100.38
264.981	40.62
265.25	-37.38
265.519	-141.38
265.788	-137.38
266.057	34.62
266.325	60.62
266.594	-45.38
266.863	-105.38
267.132	37.62
267.401	11.62
267.67	-186.38
267.939	-122.38
268.208	36.62
268.477	57.62
268.745	-125.38
269.014	-98.38
269.283	124.62
269.552	34.62
269.821	-103.38
270.089	-2.38
270.358	17.62
270.627	-5.38
270.896	-128.38
271.164	-141.38
271.433	28.62
271.702	101.62
271.971	-137.38
272.239	-133.38
272.508	38.62
272.777	-28.38
273.045	-31.38
273.314	-38.38
273.583	101.62
273.851	-5.38
274.12	-147.38
274.388	-126.38
274.657	-0.38
274.926	-1.38
275.194	-161.38
275.463	-75.38
275.731	44.62
276	194.62
276.268	396.62
276.537	-73.38
276.805	34.62
277.074	52.62
277.342	-156.38
277.611	-93.38
277.879	112.62
278.148	30.62
278.416	-147.38
278.684	-128.38
278.953	-17.38
279.221	-40.38
279.49	-196.38
279.758	-94.38
280.026	-8.38
280.295	-16.38
280.563	-127.38
280.831	984.62
281.1	2379.62
281.368	220.62
281.636	-82.38
281.904	-112.38
282.173	-2.38
282.441	-46.38
282.709	-84.38
282.977	41.62
283.246	43.62
283.514	-34.38
283.782	-66.38
284.05	23.62
284.318	73.62
284.587	-18.38
284.855	-104.38
285.123	-36.38
285.391	73.62
285.659	47.62
285.927	-137.38
286.195	-62.38
286.463	69.62
286.732	-3.38
287	-115.38
287.268	-50.38
287.536	29.62
287.804	-41.38
288.072	-147.38
288.34	-80.38
288.608	80.62
288.876	-18.38
289.144	-117.38
289.412	-15.38
289.68	52.62
289.948	-16.38
290.215	-106.38
290.483	-94.38
290.751	91.62
291.019	87.62
291.287	-172.38
291.555	-103.38
291.823	30.62
292.091	-16.38
292.358	-68.38
292.626	-11.38
292.894	86.62
293.162	46.62
293.43	-89.38
293.697	-77.38
293.965	47.62
294.233	-32.38
294.501	-172.38
294.768	-72.38
295.036	82.62
295.304	36.62
295.572	-142.38
295.839	-90.38
296.107	97.62
296.375	-3.38
296.642	-131.38
296.91	-117.38
297.178	52.62
297.445	181.62
297.713	103.62
297.98	-70.38
298.248	-19.38
298.516	-37.38
298.783	-118.38
299.051	-114.38
299.318	16.62
299.586	-33.38
299.853	-86.38
300.121	-89.38
300.388	51.62
300.656	-10.38
300.923	-153.38
301.191	-39.38
301.458	66.62
301.726	-7.38
301.993	-148.38
302.26	-86.38
302.528	49.62
302.795	-5.38
303.063	-65.38
303.33	-44.38
303.597	45.62
303.865	37.62
304.132	-105.38
304.399	-112.38
304.667	-9.38
304.934	19.62
305.201	-101.38
305.469	-23.38
305.736	52.62
306.003	40.62
306.27	-47.38
306.538	-93.38
306.805	-8.38
307.072	-20.38
307.339	-99.38
307.606	-43.38
307.874	172.62
308.141	75.62
308.408	-131.38
308.675	-101.38
308.942	-30.38
309.209	-67.38
309.477	-132.38
309.744	-83.38
310.011	32.62
310.278	41.62
310.545	-20.38
310.812	-37.38
311.079	149.62
311.346	189.62
311.613	43.62
311.88	-41.38
312.147	-51.38
312.414	-36.38
312.681	-116.38
312.948	-24.38
313.215	136.62
313.482	99.62
313.749	-87.38
314.016	-179.38
314.283	-38.38
314.55	61.62
314.817	-83.38
315.083	-115.38
315.35	-88.38
315.617	-134.38
315.884	-140.38
316.151	55.62
316.418	173.62
316.684	-11.38
316.951	-180.38
317.218	-103.38
317.485	2.62
317.752	-46.38
318.018	-112.38
318.285	-6.38
318.552	18.62
318.819	-52.38
319.085	-141.38
319.352	-66.38
319.619	28.62
319.885	-13.38
320.152	-184.38
320.419	-100.38
320.685	31.62
320.952	-34.38
321.219	-68.38
321.485	52.62
321.752	26.62
322.019	-43.38
322.285	18.62
322.552	-21.38
322.818	131.62
323.085	-11.38
323.351	-126.38
323.618	-16.38
323.884	53.62
324.151	-70.38
324.417	-40.38
324.684	-65.38
324.95	-39.38
325.217	-138.38
325.483	-165.38
325.75	-17.38
326.016	17.62
326.283	-18.38
326.549	-183.38
326.815	-66.38
327.082	110.62
327.348	17.62
327.615	-104.38
327.881	-35.38
328.147	117.62
328.414	129.62
328.68	24.62
328.946	-41.38
329.212	27.62
329.479	6.62
329.745	-104.38
330.011	-100.38
330.278	18.62
330.544	-33.38
330.81	-32.38
331.076	-35.38
331.342	-33.38
331.609	-29.38
331.875	-94.38
332.141	-82.38
332.407	40.62
332.673	12.62
332.94	-12.38
333.206	-37.38
333.472	52.62
333.738	79.62
334.004	-102.38
334.27	-7.38
334.536	10.62
334.802	-42.38
335.068	-83.38
335.334	7.62
335.6	21.62
335.866	-26.38
336.132	-158.38
336.398	-87.38
336.664	-26.38
336.93	-28.38
337.196	-84.38
337.462	-28.38
337.728	34.62
337.994	-24.38
338.26	-88.38
338.526	-40.38
338.792	-41.38
339.058	-42.38
339.324	-130.38
339.59	-10.38
339.856	58.62
340.121	-49.38
340.387	-111.38
340.653	100.62
340.919	155.62
341.185	61.62
341.45	-67.38
341.716	30.62
341.982	117.62
342.248	-52.38
342.514	-82.38
342.779	-0.38
343.045	37.62
343.311	-9.38
343.576	-88.38
343.842	-26.38
344.108	139.62
344.374	28.62
344.639	-110.38
344.905	-99.38
345.171	52.62
345.436	-57.38
345.702	-93.38
345.967	67.62
346.233	95.62
346.499	21.62
346.764	-168.38
347.03	-68.38
347.295	-34.38
347.561	8.62
347.826	-34.38
348.092	-106.38
348.357	-27.38
348.623	-6.38
348.888	-110.38
349.154	-85.38
349.419	52.62
349.685	16.62
349.95	-56.38
350.216	-40.38
350.481	44.62
350.747	-44.38
351.012	-159.38
351.277	-91.38
351.543	37.62
351.808	-27.38
352.074	-178.38
352.339	-118.38
352.604	38.62
352.87	17.62
353.135	-102.38
353.4	-59.38
353.666	16.62
353.931	6.62
354.196	-117.38
354.461	-98.38
354.727	52.62
354.992	30.62
355.257	-112.38
355.522	-4.38
355.788	20.62
356.053	73.62
356.318	-73.38
356.583	-81.38
356.848	121.62
357.113	233.62
357.379	-29.38
357.644	-60.38
357.909	110.62
358.174	148.62
358.439	-88.38
358.704	-35.38
358.969	69.62
359.234	94.62
359.499	-64.38
359.765	9.62
360.03	133.62
360.295	131.62
360.56	-47.38
360.825	18.62
361.09	220.62
361.355	46.62
361.62	-0.38
361.885	33.62
362.15	26.62
362.415	73.62
362.679	-4.38
362.944	145.62
363.209	166.62
363.474	172.62
363.739	95.62
364.004	8.62
364.269	87.62
364.534	146.62
364.799	94.62
365.063	106.62
365.328	226.62
365.593	210.62
365.858	75.62
366.123	62.62
366.387	206.62
366.652	157.62
366.917	58.62
367.182	130.62
367.447	268.62
367.711	219.62
367.976	155.62
368.241	228.62
368.505	282.62
368.77	197.62
369.035	185.62
369.299	229.62
369.564	250.62
369.829	204.62
370.093	174.62
370.358	186.62
370.623	309.62
370.887	331.62
371.152	193.62
371.416	250.62
371.681	287.62
371.946	215.62
372.21	195.62
372.475	337.62
372.739	389.62
373.004	317.62
373.268	301.62
373.533	365.62
373.797	438.62
374.062	429.62
374.326	280.62
374.591	373.62
374.855	457.62
375.12	392.62
375.384	260.62
375.648	357.62
375.913	498.62
376.177	520.62
376.442	388.62
376.706	414.62
376.97	579.62
377.235	533.62
377.499	509.62
377.763	529.62
378.028	526.62
378.292	567.62
378.556	503.62
378.821	455.62
379.085	546.62
379.349	508.62
379.614	474.62
379.878	604.62
380.142	778.62
380.406	694.62
380.671	707.62
380.935	863.62
381.199	954.62
381.463	829.62
381.727	804.62
381.991	761.62
382.256	850.62
382.52	811.62
382.784	851.62
383.048	995.62
383.312	944.62
383.576	931.62
383.84	837.62
384.104	882.62
384.369	987.62
384.633	942.62
384.897	847.62
385.161	983.62
385.425	1111.62
385.689	1061.62
385.953	1030.62
386.217	1024.62
386.481	1125.62
386.745	1187.62
387.009	1147.62
387.273	1107.62
387.537	1168.62
387.801	1227.62
388.064	1183.62
388.328	1299.62
388.592	1333.62
388.856	1291.62
389.12	1247.62
389.384	1341.62
389.648	1380.62
389.912	1458.62
390.176	1467.62
390.439	1585.62
390.703	1420.62
390.967	1406.62
391.231	1352.62
391.495	1429.62
391.758	1534.62
392.022	1594.62
392.286	1463.62
392.55	1485.62
392.813	1613.62
393.077	1679.62
393.341	1623.62
393.605	1714.62
393.868	1687.62
394.132	1702.62
394.396	1670.62
394.659	1829.62
394.923	1788.62
395.187	1746.62
395.45	1768.62
395.714	1823.62
395.978	1863.62
396.241	1880.62
396.505	1800.62
396.768	1886.62
397.032	1964.62
397.295	2001.62
397.559	1951.62
397.823	1910.62
398.086	2028.62
398.35	1993.62
398.613	1925.62
398.877	2043.62
399.14	2207.62
399.404	2239.62
399.667	2159.62
399.931	2134.62
400.194	2230.62
400.457	2217.62
400.721	2217.62
400.984	2331.62
401.248	2281.62
401.511	2245.62
401.775	2186.62
402.038	2254.62
402.301	2447.62
402.565	2428.62
402.828	2269.62
403.091	2346.62
403.355	2494.62
403.618	2463.62
403.881	2461.62
404.145	2507.62
404.408	2587.62
404.671	2539.62
404.934	2577.62
405.198	2606.62
405.461	2596.62
405.724	2661.62
405.987	2701.62
406.251	2760.62
406.514	2880.62
406.777	2740.62
407.04	2671.62
407.303	2659.62
407.567	2780.62
407.83	2894.62
408.093	2712.62
408.356	2841.62
408.619	2935.62
408.882	2961.62
409.145	2872.62
409.408	2870.62
409.672	2987.62
409.935	2910.62
410.198	2797.62
410.461	2895.62
410.724	3121.62
410.987	3044.62
411.25	2876.62
411.513	3011.62
411.776	3074.62
412.039	2960.62
412.302	2961.62
412.565	3006.62
412.828	3040.62
413.091	3067.62
413.354	2973.62
413.617	2936.62
413.879	2996.62
414.142	3055.62
414.405	2891.62
414.668	2935.62
414.931	3080.62
415.194	3030.62
415.457	2897.62
415.72	2985.62
415.983	3004.62
416.245	3035.62
416.508	2927.62
416.771	2845.62
417.034	3015.62
417.297	3018.62
417.559	2979.62
417.822	2975.62
418.085	3053.62
418.348	3016.62
418.61	2921.62
418.873	2937.62
419.136	2970.62
419.399	2958.62
419.661	2974.62
419.924	2935.62
420.187	3063.62
420.449	3053.62
420.712	3018.62
420.975	2984.62
421.237	3077.62
421.5	3133.62
421.762	3159.62
422.025	3174.62
422.288	3229.62
422.55	3041.62
422.813	2981.62
423.075	3133.62
423.338	3226.62
423.601	3287.62
423.863	3208.62
424.126	3239.62
424.388	3358.62
424.651	3311.62
424.913	3268.62
425.176	3308.62
425.438	3299.62
425.701	3312.62
425.963	3210.62
426.225	3226.62
426.488	3273.62
426.75	3292.62
427.013	3273.62
427.275	3325.62
427.538	3396.62
427.8	3432.62
428.062	3334.62
428.325	3371.62
428.587	3439.62
428.849	3409.62
429.112	3442.62
429.374	3392.62
429.636	3430.62
429.899	3542.62
430.161	3444.62
430.423	3470.62
430.686	3634.62
430.948	3574.62
431.21	3405.62
431.472	3385.62
431.735	3531.62
431.997	3550.62
432.259	3512.62
432.521	3388.62
432.783	3545.62
433.046	3553.62
433.308	3464.62
433.57	3525.62
433.832	3750.62
434.094	3586.62
434.356	3458.62
434.618	3573.62
434.881	3661.62
435.143	3688.62
435.405	3676.62
435.667	3661.62
435.929	3693.62
436.191	3655.62
436.453	3597.62
436.715	3708.62
436.977	3823.62
437.239	3866.62
437.501	3753.62
437.763	3742.62
438.025	3877.62
438.287	3795.62
438.549	3759.62
438.811	3726.62
439.073	3742.62
439.335	3803.62
439.597	3741.62
439.859	3721.62
440.121	3838.62
440.383	3755.62
440.645	3759.62
440.907	3803.62
441.168	3804.62
441.43	3794.62
441.692	3822.62
441.954	3914.62
442.216	3925.62
442.478	3836.62
442.74	3710.62
443.001	3866.62
443.263	4049.62
443.525	3914.62
443.787	3782.62
444.048	3772.62
444.31	3786.62
444.572	3853.62
444.834	3840.62
445.095	3821.62
445.357	3992.62
445.619	3824.62
445.881	3701.62
446.142	3791.62
446.404	3830.62
446.666	3866.62
446.927	3851.62
447.189	3973.62
447.451	4032.62
447.712	3859.62
447.974	3702.62
448.235	3767.62
448.497	3893.62
448.759	3808.62
449.02	3770.62
449.282	3761.62
449.543	3944.62
449.805	3962.62
450.066	3746.62
450.328	3842.62
450.59	4026.62
450.851	3837.62
451.113	3716.62
451.374	3709.62
451.636	3933.62
451.897	3980.62
452.158	3899.62
452.42	3966.62
452.681	3982.62
452.943	3809.62
453.204	3827.62
453.466	3848.62
453.727	3846.62
453.988	3878.62
454.25	3782.62
454.511	3803.62
454.773	3904.62
455.034	4049.62
455.295	3740.62
455.557	3847.62
455.818	3911.62
456.079	3898.62
456.341	4020.62
456.602	4064.62
456.863	4066.62
457.124	3953.62
457.386	3828.62
457.647	3884.62
457.908	3975.62
458.169	4054.62
458.431	3909.62
458.692	3978.62
458.953	4008.62
459.214	3982.62
459.476	4145.62
459.737	4257.62
459.998	4271.62
460.259	4098.62
460.52	4012.62
460.781	4186.62
461.043	4367.62
461.304	4279.62
461.565	4073.62
461.826	4092.62
462.087	4278.62
462.348	4424.62
462.609	4366.62
462.87	4349.62
463.131	4258.62
463.392	4473.62
463.653	4505.62
463.914	4499.62
464.175	4511.62
464.436	4517.62
464.697	4525.62
464.958	4407.62
465.219	4476.62
465.48	4557.62
465.741	4616.62
466.002	4521.62
466.263	4702.62
466.524	4706.62
466.785	4587.62
467.046	4644.62
467.307	4803.62
467.568	4860.62
467.829	4824.62
468.089	4809.62
468.35	4908.62
468.611	4838.62
468.872	4763.62
469.133	4979.62
469.394	5149.62
469.655	5219.62
469.915	5095.62
470.176	4966.62
470.437	5071.62
470.698	5196.62
470.958	5205.62
471.219	5251.62
471.48	5389.62
471.741	5464.62
472.001	5403.62
472.262	5383.62
472.523	5643.62
472.784	5747.62
473.044	5579.62
473.305	5631.62
473.566	5691.62
473.826	5791.62
474.087	5747.62
474.348	5808.62
474.608	5983.62
474.869	5956.62
475.129	5874.62
475.39	5976.62
475.651	6133.62
475.911	6234.62
476.172	6120.62
476.432	6235.62
476.693	6483.62
476.953	6399.62
477.214	6431.62
477.475	6498.62
477.735	6485.62
477.996	6599.62
478.256	6458.62
478.517	6577.62
478.777	6745.62
479.038	6874.62
479.298	6926.62
479.558	6878.62
479.819	7021.62
480.079	7070.62
480.34	7101.62
480.6	7095.62
480.861	7218.62
481.121	7221.62
481.381	7163.62
481.642	7309.62
481.902	7361.62
482.162	7344.62
482.423	7338.62
482.683	7458.62
482.943	7615.62
483.204	7557.62
483.464	7510.62
483.724	7534.62
483.985	7648.62
484.245	7803.62
484.505	7757.62
484.765	7860.62
485.026	7909.62
485.286	8026.62
485.546	7990.62
485.806	8014.62
486.067	8063.62
486.327	7999.62
486.587	7971.62
486.847	8028.62
487.107	8170.62
487.368	8217.62
487.628	8153.62
487.888	8240.62
488.148	8371.62
488.408	8274.62
488.668	8299.62
488.928	8317.62
489.188	8354.62
489.449	8393.62
489.709	8330.62
489.969	8394.62
490.229	8491.62
490.489	8498.62
490.749	8413.62
491.009	8366.62
491.269	8461.62
491.529	8503.62
491.789	8461.62
492.049	8594.62
492.309	8665.62
492.569	8546.62
492.829	8550.62
493.089	8529.62
493.349	8701.62
493.609	8622.62
493.869	8483.62
494.129	8602.62
494.389	8719.62
494.648	8623.62
494.908	8581.62
495.168	8683.62
495.428	8747.62
495.688	8695.62
495.948	8573.62
496.208	8627.62
496.467	8731.62
496.727	8733.62
496.987	8760.62
497.247	8752.62
497.507	8783.62
497.767	8821.62
498.026	8685.62
498.286	8816.62
498.546	8948.62
498.806	8816.62
499.065	8908.62
499.325	8757.62
499.585	8782.62
499.845	8834.62
500.104	8844.62
500.364	8881.62
500.624	8823.62
500.883	8811.62
501.143	8871.62
501.403	8918.62
501.662	9038.62
501.922	8942.62
502.182	8688.62
502.441	8691.62
502.701	8763.62
502.96	8920.62
503.22	8850.62
503.48	8790.62
503.739	8863.62
503.999	8798.62
504.258	8734.62
504.518	8831.62
504.777	8853.62
505.037	8852.62
505.296	8794.62
505.556	8773.62
505.815	8939.62
506.075	9010.62
506.334	8917.62
506.594	8700.62
506.853	8742.62
507.113	8820.62
507.372	8661.62
507.632	8716.62
507.891	8895.62
508.151	8941.62
508.41	8783.62
508.669	8815.62
508.929	8869.62
509.188	8837.62
509.447	8839.62
509.707	8780.62
509.966	8834.62
510.226	8830.62
510.485	8787.62
510.744	8875.62
511.004	8962.62
511.263	8787.62
511.522	8728.62
511.781	8732.62
512.041	8873.62
512.3	8900.62
512.559	8915.62
512.818	8925.62
513.078	8903.62
513.337	8859.62
513.596	8739.62
513.855	8787.62
514.115	8873.62
514.374	8857.62
514.633	8748.62
514.892	8790.62
515.151	8953.62
515.41	8981.62
515.67	8861.62
515.929	8807.62
516.188	8939.62
516.447	8923.62
516.706	8827.62
516.965	8905.62
517.224	8946.62
517.483	8927.62
517.743	8791.62
518.002	8827.62
518.261	8958.62
518.52	9023.62
518.779	8899.62
519.038	8853.62
519.297	8954.62
519.556	8909.62
519.815	8770.62
520.074	8838.62
520.333	8973.62
520.592	8956.62
520.851	8792.62
521.11	8926.62
521.369	9057.62
521.628	8917.62
521.887	8801.62
522.145	8831.62
522.404	8868.62
522.663	8890.62
522.922	8767.62
523.181	8782.62
523.44	8885.62
523.699	8945.62
523.958	8784.62
524.217	8751.62
524.475	8827.62
524.734	8844.62
524.993	8829.62
525.252	8842.62
525.511	8904.62
525.769	8819.62
526.028	8715.62
526.287	8798.62
526.546	8900.62
526.805	8893.62
527.063	8751.62
527.322	8721.62
527.581	8807.62
527.839	8790.62
528.098	8750.62
528.357	8739.62
528.616	8812.62
528.874	8851.62
529.133	8760.62
529.392	8813.62
529.65	8791.62
529.909	8733.62
530.168	8626.62
