Data from HR4C21111__5__09-40-26-467.txt Node

Date: Mon Feb 22 09:40:26 IST 2021
User: Kapil
Spectrometer: HR4C2111
Trigger mode: 4
Integration Time (sec): 2.300000E0
Scans to average: 1
Electric dark correction enabled: true
Nonlinearity correction enabled: false
Boxcar width: 0
XAxis mode: Wavelengths
Number of Pixels in Spectrum: 3648
>>>>>Begin Spectral Data<<<<<
189.472	-442.38
189.745	-442.38
190.017	-442.38
190.289	-449.38
190.561	-303.38
190.834	-43.38
191.106	-123.38
191.378	16.62
191.65	5.62
191.923	-142.38
192.195	-89.38
192.467	133.62
192.739	115.62
193.011	-31.38
193.284	75.62
193.556	191.62
193.828	-9.38
194.1	-99.38
194.372	-103.38
194.644	68.62
194.916	54.62
195.188	-158.38
195.46	-78.38
195.732	55.62
196.004	-16.38
196.276	-115.38
196.548	-65.38
196.82	71.62
197.092	49.62
197.364	-135.38
197.636	-97.38
197.908	17.62
198.18	-33.38
198.452	-92.38
198.724	-39.38
198.996	61.62
199.268	68.62
199.54	-39.38
199.811	-118.38
200.083	92.62
200.355	3.62
200.627	-205.38
200.899	-78.38
201.171	59.62
201.442	-54.38
201.714	-172.38
201.986	-93.38
202.258	65.62
202.529	118.62
202.801	-3.38
203.073	86.62
203.345	191.62
203.616	3.62
203.888	-138.38
204.16	-130.38
204.431	83.62
204.703	-3.38
204.974	-139.38
205.246	-16.38
205.518	174.62
205.789	4.62
206.061	-116.38
206.332	-98.38
206.604	19.62
206.876	92.62
207.147	123.62
207.419	19.62
207.69	138.62
207.962	-35.38
208.233	-186.38
208.505	0.62
208.776	186.62
209.047	89.62
209.319	-120.38
209.59	-75.38
209.862	147.62
210.133	55.62
210.404	-150.38
210.676	-96.38
210.947	84.62
211.219	60.62
211.49	-124.38
211.761	-42.38
212.033	37.62
212.304	-25.38
212.575	-160.38
212.846	-72.38
213.118	32.62
213.389	-52.38
213.66	-94.38
213.931	-44.38
214.203	23.62
214.474	-41.38
214.745	-126.38
215.016	134.62
215.287	428.62
215.559	55.62
215.83	-110.38
216.101	-44.38
216.372	7.62
216.643	86.62
216.914	25.62
217.185	-69.38
217.456	158.62
217.727	25.62
217.998	-153.38
218.269	-60.38
218.54	28.62
218.811	-9.38
219.082	-86.38
219.353	-61.38
219.624	-9.38
219.895	-26.38
220.166	-124.38
220.437	-106.38
220.708	89.62
220.979	4.62
221.25	-149.38
221.521	-97.38
221.792	38.62
222.063	80.62
222.334	28.62
222.604	157.62
222.875	159.62
223.146	87.62
223.417	-177.38
223.688	-35.38
223.958	123.62
224.229	-51.38
224.5	-192.38
224.771	-63.38
225.041	98.62
225.312	36.62
225.583	-120.38
225.854	-66.38
226.124	96.62
226.395	-6.38
226.666	-124.38
226.936	-91.38
227.207	70.62
227.478	-45.38
227.748	-106.38
228.019	49.62
228.289	247.62
228.56	-27.38
228.831	-39.38
229.101	41.62
229.372	65.62
229.642	-11.38
229.913	-153.38
230.183	-126.38
230.454	6.62
230.724	4.62
230.995	-96.38
231.265	-73.38
231.536	58.62
231.806	35.62
232.076	-114.38
232.347	-117.38
232.617	19.62
232.888	13.62
233.158	-72.38
233.428	-123.38
233.699	-23.38
233.969	-39.38
234.239	-154.38
234.51	-79.38
234.78	49.62
235.05	-16.38
235.321	-121.38
235.591	-80.38
235.861	52.62
236.131	-54.38
236.402	-192.38
236.672	-101.38
236.942	44.62
237.212	38.62
237.483	-57.38
237.753	11.62
238.023	169.62
238.293	28.62
238.563	-70.38
238.833	-88.38
239.103	76.62
239.374	-20.38
239.644	-143.38
239.914	-41.38
240.184	119.62
240.454	-11.38
240.724	-161.38
240.994	-52.38
241.264	35.62
241.534	57.62
241.804	-22.38
242.074	-72.38
242.344	-21.38
242.614	-55.38
242.884	-174.38
243.154	-119.38
243.424	37.62
243.694	72.62
243.964	-93.38
244.234	-71.38
244.503	115.62
244.773	9.62
245.043	-215.38
245.313	-126.38
245.583	119.62
245.853	91.62
246.123	-164.38
246.392	-105.38
246.662	-11.38
246.932	-36.38
247.202	-163.38
247.471	-47.38
247.741	263.62
248.011	100.62
248.281	-144.38
248.55	-85.38
248.82	65.62
249.09	-10.38
249.359	-107.38
249.629	-90.38
249.899	51.62
250.168	54.62
250.438	-37.38
250.708	-99.38
250.977	74.62
251.247	64.62
251.516	-115.38
251.786	-55.38
252.055	123.62
252.325	20.62
252.595	-104.38
252.864	-70.38
253.134	47.62
253.403	-32.38
253.673	-172.38
253.942	-106.38
254.212	45.62
254.481	-3.38
254.75	-141.38
255.02	-78.38
255.289	75.62
255.559	-7.38
255.828	-115.38
256.097	-25.38
256.367	30.62
256.636	-71.38
256.906	-138.38
257.175	-20.38
257.444	243.62
257.714	71.62
257.983	-77.38
258.252	-32.38
258.521	21.62
258.791	37.62
259.06	-105.38
259.329	-39.38
259.598	76.62
259.868	-10.38
260.137	-117.38
260.406	8.62
260.675	92.62
260.944	20.62
261.214	-131.38
261.483	-42.38
261.752	171.62
262.021	24.62
262.29	-152.38
262.559	-104.38
262.828	12.62
263.097	-57.38
263.366	-198.38
263.635	-89.38
263.905	138.62
264.174	26.62
264.443	-201.38
264.712	-108.38
264.981	33.62
265.25	-51.38
265.519	-160.38
265.788	-155.38
266.057	29.62
266.325	59.62
266.594	-58.38
266.863	-106.38
267.132	20.62
267.401	-2.38
267.67	-187.38
267.939	-146.38
268.208	40.62
268.477	68.62
268.745	-132.38
269.014	-97.38
269.283	143.62
269.552	43.62
269.821	-116.38
270.089	-22.38
270.358	-10.38
270.627	-26.38
270.896	-127.38
271.164	-163.38
271.433	7.62
271.702	83.62
271.971	-137.38
272.239	-138.38
272.508	32.62
272.777	-32.38
273.045	-15.38
273.314	-22.38
273.583	101.62
273.851	-4.38
274.12	-158.38
274.388	-136.38
274.657	-2.38
274.926	-13.38
275.194	-152.38
275.463	-61.38
275.731	36.62
276	171.62
276.268	372.62
276.537	-80.38
276.805	21.62
277.074	36.62
277.342	-156.38
277.611	-107.38
277.879	91.62
278.148	28.62
278.416	-134.38
278.684	-103.38
278.953	-22.38
279.221	-30.38
279.49	-186.38
279.758	-99.38
280.026	-10.38
280.295	0.62
280.563	-117.38
280.831	995.62
281.1	2410.62
281.368	218.62
281.636	-90.38
281.904	-110.38
282.173	-4.38
282.441	-59.38
282.709	-91.38
282.977	27.62
283.246	43.62
283.514	-28.38
283.782	-58.38
284.05	13.62
284.318	64.62
284.587	-21.38
284.855	-118.38
285.123	-34.38
285.391	75.62
285.659	45.62
285.927	-151.38
286.195	-76.38
286.463	53.62
286.732	2.62
287	-112.38
287.268	-40.38
287.536	20.62
287.804	-22.38
288.072	-126.38
288.34	-90.38
288.608	70.62
288.876	-33.38
289.144	-128.38
289.412	-20.38
289.68	50.62
289.948	-26.38
290.215	-119.38
290.483	-96.38
290.751	108.62
291.019	100.62
291.287	-166.38
291.555	-119.38
291.823	31.62
292.091	-28.38
292.358	-80.38
292.626	-13.38
292.894	77.62
293.162	47.62
293.43	-95.38
293.697	-70.38
293.965	60.62
294.233	-24.38
294.501	-168.38
294.768	-69.38
295.036	80.62
295.304	42.62
295.572	-130.38
295.839	-98.38
296.107	104.62
296.375	4.62
296.642	-127.38
296.91	-118.38
297.178	58.62
297.445	169.62
297.713	79.62
297.98	-88.38
298.248	-28.38
298.516	-39.38
298.783	-118.38
299.051	-118.38
299.318	5.62
299.586	-36.38
299.853	-97.38
300.121	-75.38
300.388	45.62
300.656	-4.38
300.923	-151.38
301.191	-43.38
301.458	53.62
301.726	-21.38
301.993	-140.38
302.26	-88.38
302.528	40.62
302.795	-11.38
303.063	-74.38
303.33	-41.38
303.597	26.62
303.865	14.62
304.132	-139.38
304.399	-134.38
304.667	-26.38
304.934	12.62
305.201	-120.38
305.469	-22.38
305.736	57.62
306.003	36.62
306.27	-53.38
306.538	-95.38
306.805	3.62
307.072	-20.38
307.339	-90.38
307.606	-44.38
307.874	153.62
308.141	70.62
308.408	-136.38
308.675	-114.38
308.942	-41.38
309.209	-75.38
309.477	-122.38
309.744	-83.38
310.011	22.62
310.278	15.62
310.545	-47.38
310.812	-62.38
311.079	123.62
311.346	196.62
311.613	64.62
311.88	-31.38
312.147	-60.38
312.414	-39.38
312.681	-104.38
312.948	-33.38
313.215	113.62
313.482	69.62
313.749	-96.38
314.016	-190.38
314.283	-52.38
314.55	48.62
314.817	-98.38
315.083	-123.38
315.35	-78.38
315.617	-123.38
315.884	-123.38
316.151	64.62
316.418	165.62
316.684	-11.38
316.951	-186.38
317.218	-110.38
317.485	13.62
317.752	-54.38
318.018	-120.38
318.285	3.62
318.552	39.62
318.819	-61.38
319.085	-137.38
319.352	-55.38
319.619	43.62
319.885	-25.38
320.152	-185.38
320.419	-82.38
320.685	48.62
320.952	-23.38
321.219	-66.38
321.485	70.62
321.752	26.62
322.019	-44.38
322.285	26.62
322.552	-10.38
322.818	101.62
323.085	-24.38
323.351	-126.38
323.618	-21.38
323.884	44.62
324.151	-76.38
324.417	-35.38
324.684	-61.38
324.95	-43.38
325.217	-137.38
325.483	-179.38
325.75	-36.38
326.016	6.62
326.283	-26.38
326.549	-183.38
326.815	-67.38
327.082	96.62
327.348	5.62
327.615	-108.38
327.881	-18.38
328.147	132.62
328.414	127.62
328.68	5.62
328.946	-40.38
329.212	32.62
329.479	-12.38
329.745	-108.38
330.011	-101.38
330.278	10.62
330.544	-53.38
330.81	-30.38
331.076	-26.38
331.342	-31.38
331.609	-28.38
331.875	-82.38
332.141	-91.38
332.407	18.62
332.673	-14.38
332.94	-35.38
333.206	-42.38
333.472	48.62
333.738	63.62
334.004	-112.38
334.27	-14.38
334.536	9.62
334.802	-33.38
335.068	-82.38
335.334	9.62
335.6	35.62
335.866	-14.38
336.132	-155.38
336.398	-76.38
336.664	-5.38
336.93	-28.38
337.196	-85.38
337.462	-18.38
337.728	24.62
337.994	-23.38
338.26	-88.38
338.526	-24.38
338.792	-43.38
339.058	-37.38
339.324	-142.38
339.59	-21.38
339.856	48.62
340.121	-52.38
340.387	-118.38
340.653	84.62
340.919	153.62
341.185	40.62
341.45	-83.38
341.716	23.62
341.982	113.62
342.248	-54.38
342.514	-75.38
342.779	11.62
343.045	36.62
343.311	-7.38
343.576	-76.38
343.842	-42.38
344.108	122.62
344.374	24.62
344.639	-115.38
344.905	-98.38
345.171	41.62
345.436	-57.38
345.702	-95.38
345.967	52.62
346.233	79.62
346.499	14.62
346.764	-165.38
347.03	-63.38
347.295	-31.38
347.561	-2.38
347.826	-47.38
348.092	-126.38
348.357	-11.38
348.623	-14.38
348.888	-112.38
349.154	-67.38
349.419	56.62
349.685	8.62
349.95	-67.38
350.216	-45.38
350.481	55.62
350.747	-38.38
351.012	-164.38
351.277	-96.38
351.543	46.62
351.808	0.62
352.074	-153.38
352.339	-106.38
352.604	66.62
352.87	30.62
353.135	-113.38
353.4	-68.38
353.666	9.62
353.931	0.62
354.196	-130.38
354.461	-116.38
354.727	43.62
354.992	18.62
355.257	-134.38
355.522	-29.38
355.788	17.62
356.053	73.62
356.318	-79.38
356.583	-75.38
356.848	118.62
357.113	223.62
357.379	-41.38
357.644	-55.38
357.909	137.62
358.174	142.62
358.439	-108.38
358.704	-28.38
358.969	89.62
359.234	93.62
359.499	-73.38
359.765	1.62
360.03	108.62
360.295	112.62
360.56	-54.38
360.825	8.62
361.09	212.62
361.355	35.62
361.62	-3.38
361.885	38.62
362.15	26.62
362.415	38.62
362.679	-15.38
362.944	141.62
363.209	148.62
363.474	153.62
363.739	93.62
364.004	23.62
364.269	94.62
364.534	141.62
364.799	95.62
365.063	89.62
365.328	198.62
365.593	205.62
365.858	84.62
366.123	90.62
366.387	220.62
366.652	155.62
366.917	56.62
367.182	132.62
367.447	271.62
367.711	200.62
367.976	146.62
368.241	237.62
368.505	296.62
368.77	198.62
369.035	178.62
369.299	237.62
369.564	270.62
369.829	219.62
370.093	179.62
370.358	172.62
370.623	279.62
370.887	312.62
371.152	178.62
371.416	260.62
371.681	309.62
371.946	239.62
372.21	204.62
372.475	330.62
372.739	374.62
373.004	325.62
373.268	307.62
373.533	370.62
373.797	435.62
374.062	429.62
374.326	285.62
374.591	367.62
374.855	458.62
375.12	403.62
375.384	246.62
375.648	344.62
375.913	503.62
376.177	515.62
376.442	394.62
376.706	423.62
376.97	576.62
377.235	532.62
377.499	498.62
377.763	525.62
378.028	524.62
378.292	576.62
378.556	509.62
378.821	465.62
379.085	546.62
379.349	506.62
379.614	473.62
379.878	602.62
380.142	773.62
380.406	711.62
380.671	717.62
380.935	853.62
381.199	958.62
381.463	845.62
381.727	802.62
381.991	785.62
382.256	883.62
382.52	837.62
382.784	858.62
383.048	991.62
383.312	914.62
383.576	892.62
383.84	849.62
384.104	933.62
384.369	1002.62
384.633	908.62
384.897	852.62
385.161	1005.62
385.425	1114.62
385.689	1049.62
385.953	1039.62
386.217	1046.62
386.481	1148.62
386.745	1194.62
387.009	1149.62
387.273	1127.62
387.537	1199.62
387.801	1229.62
388.064	1192.62
388.328	1281.62
388.592	1347.62
388.856	1319.62
389.12	1265.62
389.384	1338.62
389.648	1404.62
389.912	1488.62
390.176	1498.62
390.439	1614.62
390.703	1437.62
390.967	1423.62
391.231	1356.62
391.495	1456.62
391.758	1564.62
392.022	1583.62
392.286	1469.62
392.55	1527.62
392.813	1642.62
393.077	1682.62
393.341	1636.62
393.605	1737.62
393.868	1713.62
394.132	1698.62
394.396	1655.62
394.659	1813.62
394.923	1786.62
395.187	1742.62
395.45	1747.62
395.714	1818.62
395.978	1850.62
396.241	1878.62
396.505	1837.62
396.768	1914.62
397.032	2007.62
397.295	2013.62
397.559	1929.62
397.823	1905.62
398.086	2079.62
398.35	2024.62
398.613	1930.62
398.877	2049.62
399.14	2194.62
399.404	2235.62
399.667	2166.62
399.931	2126.62
400.194	2243.62
400.457	2219.62
400.721	2209.62
400.984	2326.62
401.248	2288.62
401.511	2293.62
401.775	2169.62
402.038	2234.62
402.301	2467.62
402.565	2429.62
402.828	2224.62
403.091	2339.62
403.355	2487.62
403.618	2485.62
403.881	2490.62
404.145	2544.62
404.408	2592.62
404.671	2529.62
404.934	2595.62
405.198	2640.62
405.461	2661.62
405.724	2696.62
405.987	2651.62
406.251	2730.62
406.514	2872.62
406.777	2743.62
407.04	2643.62
407.303	2652.62
407.567	2771.62
407.83	2864.62
408.093	2687.62
408.356	2824.62
408.619	2927.62
408.882	3001.62
409.145	2926.62
409.408	2888.62
409.672	2968.62
409.935	2907.62
410.198	2836.62
410.461	2911.62
410.724	3146.62
410.987	3075.62
411.25	2869.62
411.513	3023.62
411.776	3124.62
412.039	2995.62
412.302	2962.62
412.565	3049.62
412.828	3058.62
413.091	3060.62
413.354	2974.62
413.617	2963.62
413.879	3033.62
414.142	3035.62
414.405	2900.62
414.668	2973.62
414.931	3107.62
415.194	3066.62
415.457	2948.62
415.72	3029.62
415.983	3057.62
416.245	3081.62
416.508	2968.62
416.771	2897.62
417.034	3050.62
417.297	3065.62
417.559	3009.62
417.822	2993.62
418.085	3076.62
418.348	3044.62
418.61	2932.62
418.873	2918.62
419.136	2994.62
419.399	2953.62
419.661	2997.62
419.924	2921.62
420.187	3029.62
420.449	3065.62
420.712	3040.62
420.975	3024.62
421.237	3082.62
421.5	3106.62
421.762	3174.62
422.025	3181.62
422.288	3240.62
422.55	3066.62
422.813	2988.62
423.075	3138.62
423.338	3232.62
423.601	3279.62
423.863	3219.62
424.126	3267.62
424.388	3350.62
424.651	3334.62
424.913	3287.62
425.176	3294.62
425.438	3284.62
425.701	3277.62
425.963	3169.62
426.225	3246.62
426.488	3309.62
426.75	3279.62
427.013	3288.62
427.275	3390.62
427.538	3405.62
427.8	3405.62
428.062	3320.62
428.325	3361.62
428.587	3460.62
428.849	3430.62
429.112	3429.62
429.374	3407.62
429.636	3430.62
429.899	3565.62
430.161	3419.62
430.423	3487.62
430.686	3624.62
430.948	3616.62
431.21	3410.62
431.472	3387.62
431.735	3565.62
431.997	3564.62
432.259	3547.62
432.521	3497.62
432.783	3580.62
433.046	3550.62
433.308	3468.62
433.57	3525.62
433.832	3755.62
434.094	3572.62
434.356	3403.62
434.618	3576.62
434.881	3693.62
435.143	3726.62
435.405	3683.62
435.667	3651.62
435.929	3691.62
436.191	3671.62
436.453	3589.62
436.715	3720.62
436.977	3860.62
437.239	3888.62
437.501	3794.62
437.763	3784.62
438.025	3858.62
438.287	3820.62
438.549	3727.62
438.811	3690.62
439.073	3796.62
439.335	3856.62
439.597	3802.62
439.859	3774.62
440.121	3916.62
440.383	3792.62
440.645	3757.62
440.907	3851.62
441.168	3871.62
441.43	3832.62
441.692	3809.62
441.954	3880.62
442.216	3971.62
442.478	3920.62
442.74	3749.62
443.001	3891.62
443.263	4028.62
443.525	3859.62
443.787	3756.62
444.048	3754.62
444.31	3823.62
444.572	3861.62
444.834	3873.62
445.095	3881.62
445.357	4016.62
445.619	3835.62
445.881	3712.62
446.142	3811.62
446.404	3822.62
446.666	3823.62
446.927	3825.62
447.189	4005.62
447.451	4026.62
447.712	3873.62
447.974	3723.62
448.235	3766.62
448.497	3844.62
448.759	3797.62
449.02	3836.62
449.282	3779.62
449.543	3888.62
449.805	3947.62
450.066	3724.62
450.328	3825.62
450.59	4047.62
450.851	3910.62
451.113	3773.62
451.374	3728.62
451.636	3986.62
451.897	3990.62
452.158	3846.62
452.42	3930.62
452.681	3977.62
452.943	3796.62
453.204	3834.62
453.466	3844.62
453.727	3848.62
453.988	3895.62
454.25	3812.62
454.511	3867.62
454.773	3896.62
455.034	4031.62
455.295	3812.62
455.557	3949.62
455.818	3976.62
456.079	3923.62
456.341	4024.62
456.602	4092.62
456.863	4146.62
457.124	3975.62
457.386	3822.62
457.647	3826.62
457.908	3906.62
458.169	4043.62
458.431	3890.62
458.692	3958.62
458.953	3999.62
459.214	3983.62
459.476	4105.62
459.737	4293.62
459.998	4285.62
460.259	4120.62
460.52	4089.62
460.781	4199.62
461.043	4370.62
461.304	4270.62
461.565	4149.62
461.826	4185.62
462.087	4304.62
462.348	4466.62
462.609	4391.62
462.87	4357.62
463.131	4330.62
463.392	4553.62
463.653	4570.62
463.914	4551.62
464.175	4495.62
464.436	4534.62
464.697	4576.62
464.958	4443.62
465.219	4484.62
465.48	4586.62
465.741	4616.62
466.002	4480.62
466.263	4705.62
466.524	4745.62
466.785	4597.62
467.046	4682.62
467.307	4839.62
467.568	4920.62
467.829	4886.62
468.089	4888.62
468.35	4948.62
468.611	4842.62
468.872	4755.62
469.133	4988.62
469.394	5171.62
469.655	5233.62
469.915	5095.62
470.176	4977.62
470.437	5058.62
470.698	5204.62
470.958	5264.62
471.219	5254.62
471.48	5359.62
471.741	5523.62
472.001	5493.62
472.262	5494.62
472.523	5682.62
472.784	5793.62
473.044	5679.62
473.305	5727.62
473.566	5762.62
473.826	5822.62
474.087	5774.62
474.348	5821.62
474.608	6033.62
474.869	6034.62
475.129	5905.62
475.39	5956.62
475.651	6135.62
475.911	6312.62
476.172	6189.62
476.432	6287.62
476.693	6530.62
476.953	6415.62
477.214	6447.62
477.475	6518.62
477.735	6491.62
477.996	6614.62
478.256	6505.62
478.517	6616.62
478.777	6766.62
479.038	6947.62
479.298	6948.62
479.558	6962.62
479.819	7121.62
480.079	7124.62
480.34	7142.62
480.6	7167.62
480.861	7251.62
481.121	7261.62
481.381	7234.62
481.642	7329.62
481.902	7371.62
482.162	7383.62
482.423	7336.62
482.683	7490.62
482.943	7638.62
483.204	7606.62
483.464	7570.62
483.724	7627.62
483.985	7688.62
484.245	7800.62
484.505	7766.62
484.765	7860.62
485.026	7954.62
485.286	8025.62
485.546	7985.62
485.806	8014.62
486.067	8051.62
486.327	8024.62
486.587	8036.62
486.847	8084.62
487.107	8220.62
487.368	8288.62
487.628	8177.62
487.888	8203.62
488.148	8381.62
488.408	8260.62
488.668	8348.62
488.928	8352.62
489.188	8369.62
489.449	8499.62
489.709	8359.62
489.969	8395.62
490.229	8553.62
490.489	8531.62
490.749	8456.62
491.009	8360.62
491.269	8501.62
491.529	8515.62
491.789	8501.62
492.049	8554.62
492.309	8720.62
492.569	8634.62
492.829	8616.62
493.089	8570.62
493.349	8735.62
493.609	8682.62
493.869	8570.62
494.129	8678.62
494.389	8782.62
494.648	8664.62
494.908	8583.62
495.168	8689.62
495.428	8812.62
495.688	8791.62
495.948	8609.62
496.208	8655.62
496.467	8752.62
496.727	8771.62
496.987	8768.62
497.247	8778.62
497.507	8816.62
497.767	8885.62
498.026	8687.62
498.286	8774.62
498.546	8992.62
498.806	8853.62
499.065	8898.62
499.325	8831.62
499.585	8835.62
499.845	8796.62
500.104	8827.62
500.364	8873.62
500.624	8872.62
500.883	8789.62
501.143	8864.62
501.403	8935.62
501.662	8947.62
501.922	8883.62
502.182	8747.62
502.441	8761.62
502.701	8831.62
502.96	8915.62
503.22	8877.62
503.48	8846.62
503.739	8914.62
503.999	8858.62
504.258	8765.62
504.518	8858.62
504.777	8947.62
505.037	8871.62
505.296	8817.62
505.556	8824.62
505.815	8936.62
506.075	9037.62
506.334	8957.62
506.594	8733.62
506.853	8783.62
507.113	8824.62
507.372	8702.62
507.632	8778.62
507.891	8851.62
508.151	8957.62
508.41	8801.62
508.669	8819.62
508.929	8854.62
509.188	8851.62
509.447	8838.62
509.707	8754.62
509.966	8861.62
510.226	8908.62
510.485	8834.62
510.744	8900.62
511.004	8958.62
511.263	8891.62
511.522	8726.62
511.781	8707.62
512.041	8886.62
512.3	8896.62
512.559	8902.62
512.818	8936.62
513.078	8902.62
513.337	8843.62
513.596	8804.62
513.855	8850.62
514.115	8900.62
514.374	8912.62
514.633	8842.62
514.892	8775.62
515.151	8887.62
515.41	8923.62
515.67	8811.62
515.929	8792.62
516.188	8983.62
516.447	8939.62
516.706	8847.62
516.965	8912.62
517.224	8962.62
517.483	8910.62
517.743	8848.62
518.002	8917.62
518.261	8966.62
518.52	8973.62
518.779	8866.62
519.038	8891.62
519.297	8937.62
519.556	8969.62
519.815	8910.62
520.074	8861.62
520.333	8978.62
520.592	8988.62
520.851	8875.62
521.11	8984.62
521.369	9094.62
521.628	8918.62
521.887	8790.62
522.145	8886.62
522.404	8936.62
522.663	8922.62
522.922	8832.62
523.181	8823.62
523.44	8968.62
523.699	8971.62
523.958	8812.62
524.217	8822.62
524.475	8817.62
524.734	8767.62
524.993	8794.62
525.252	8863.62
525.511	8901.62
525.769	8836.62
526.028	8761.62
526.287	8815.62
526.546	8852.62
526.805	8799.62
527.063	8727.62
527.322	8759.62
527.581	8843.62
527.839	8819.62
528.098	8803.62
528.357	8817.62
528.616	8811.62
528.874	8785.62
529.133	8767.62
529.392	8823.62
529.65	8817.62
529.909	8731.62
530.168	8683.62
