Data from HR4C21111__11__09-41-46-959.txt Node

Date: Mon Feb 22 09:41:46 IST 2021
User: Kapil
Spectrometer: HR4C2111
Trigger mode: 4
Integration Time (sec): 2.300000E0
Scans to average: 1
Electric dark correction enabled: true
Nonlinearity correction enabled: false
Boxcar width: 0
XAxis mode: Wavelengths
Number of Pixels in Spectrum: 3648
>>>>>Begin Spectral Data<<<<<
189.472	-422.23
189.745	-422.23
190.017	-422.23
190.289	-459.23
190.561	-300.23
190.834	-41.23
191.106	-132.23
191.378	8.77
191.65	10.77
191.923	-134.23
192.195	-91.23
192.467	129.77
192.739	106.77
193.011	-12.23
193.284	87.77
193.556	164.77
193.828	-12.23
194.1	-85.23
194.372	-102.23
194.644	65.77
194.916	68.77
195.188	-129.23
195.46	-71.23
195.732	47.77
196.004	-18.23
196.276	-107.23
196.548	-72.23
196.82	71.77
197.092	61.77
197.364	-126.23
197.636	-77.23
197.908	40.77
198.18	-27.23
198.452	-72.23
198.724	-42.23
198.996	58.77
199.268	80.77
199.54	-21.23
199.811	-101.23
200.083	109.77
200.355	26.77
200.627	-200.23
200.899	-72.23
201.171	53.77
201.442	-44.23
201.714	-174.23
201.986	-84.23
202.258	83.77
202.529	122.77
202.801	1.77
203.073	72.77
203.345	185.77
203.616	23.77
203.888	-118.23
204.16	-137.23
204.431	87.77
204.703	-4.23
204.974	-141.23
205.246	9.77
205.518	185.77
205.789	-12.23
206.061	-131.23
206.332	-101.23
206.604	18.77
206.876	81.77
207.147	109.77
207.419	11.77
207.69	145.77
207.962	-24.23
208.233	-172.23
208.505	14.77
208.776	189.77
209.047	82.77
209.319	-123.23
209.59	-80.23
209.862	145.77
210.133	56.77
210.404	-129.23
210.676	-89.23
210.947	74.77
211.219	46.77
211.49	-121.23
211.761	-41.23
212.033	46.77
212.304	-27.23
212.575	-176.23
212.846	-76.23
213.118	38.77
213.389	-44.23
213.66	-96.23
213.931	-36.23
214.203	31.77
214.474	-29.23
214.745	-126.23
215.016	134.77
215.287	429.77
215.559	76.77
215.83	-94.23
216.101	-60.23
216.372	13.77
216.643	79.77
216.914	-4.23
217.185	-70.23
217.456	168.77
217.727	18.77
217.998	-153.23
218.269	-49.23
218.54	24.77
218.811	-16.23
219.082	-103.23
219.353	-61.23
219.624	-4.23
219.895	-27.23
220.166	-143.23
220.437	-114.23
220.708	110.77
220.979	1.77
221.25	-127.23
221.521	-77.23
221.792	53.77
222.063	92.77
222.334	39.77
222.604	178.77
222.875	170.77
223.146	85.77
223.417	-157.23
223.688	-22.23
223.958	120.77
224.229	-39.23
224.5	-179.23
224.771	-76.23
225.041	85.77
225.312	61.77
225.583	-99.23
225.854	-55.23
226.124	99.77
226.395	-0.23
226.666	-120.23
226.936	-92.23
227.207	59.77
227.478	-42.23
227.748	-80.23
228.019	62.77
228.289	258.77
228.56	-16.23
228.831	-54.23
229.101	51.77
229.372	73.77
229.642	-13.23
229.913	-155.23
230.183	-112.23
230.454	1.77
230.724	17.77
230.995	-76.23
231.265	-60.23
231.536	71.77
231.806	34.77
232.076	-112.23
232.347	-111.23
232.617	29.77
232.888	28.77
233.158	-73.23
233.428	-104.23
233.699	8.77
233.969	-40.23
234.239	-157.23
234.51	-78.23
234.78	41.77
235.05	-13.23
235.321	-119.23
235.591	-69.23
235.861	55.77
236.131	-57.23
236.402	-174.23
236.672	-51.23
236.942	56.77
237.212	46.77
237.483	-61.23
237.753	-0.23
238.023	160.77
238.293	19.77
238.563	-78.23
238.833	-102.23
239.103	60.77
239.374	-0.23
239.644	-136.23
239.914	-26.23
240.184	139.77
240.454	1.77
240.724	-147.23
240.994	-37.23
241.264	33.77
241.534	73.77
241.804	-4.23
242.074	-75.23
242.344	-29.23
242.614	-51.23
242.884	-168.23
243.154	-116.23
243.424	42.77
243.694	55.77
243.964	-94.23
244.234	-63.23
244.503	134.77
244.773	13.77
245.043	-209.23
245.313	-127.23
245.583	112.77
245.853	85.77
246.123	-164.23
246.392	-103.23
246.662	1.77
246.932	-13.23
247.202	-161.23
247.471	-46.23
247.741	264.77
248.011	98.77
248.281	-136.23
248.55	-77.23
248.82	72.77
249.09	-2.23
249.359	-77.23
249.629	-64.23
249.899	59.77
250.168	65.77
250.438	-18.23
250.708	-92.23
250.977	104.77
251.247	70.77
251.516	-111.23
251.786	-32.23
252.055	141.77
252.325	24.77
252.595	-85.23
252.864	-46.23
253.134	59.77
253.403	-32.23
253.673	-168.23
253.942	-100.23
254.212	38.77
254.481	6.77
254.75	-138.23
255.02	-79.23
255.289	82.77
255.559	-0.23
255.828	-118.23
256.097	-19.23
256.367	30.77
256.636	-61.23
256.906	-129.23
257.175	-16.23
257.444	260.77
257.714	65.77
257.983	-72.23
258.252	-24.23
258.521	26.77
258.791	49.77
259.06	-97.23
259.329	-49.23
259.598	73.77
259.868	6.77
260.137	-109.23
260.406	22.77
260.675	93.77
260.944	32.77
261.214	-126.23
261.483	-49.23
261.752	173.77
262.021	31.77
262.29	-148.23
262.559	-110.23
262.828	37.77
263.097	-42.23
263.366	-205.23
263.635	-85.23
263.905	145.77
264.174	30.77
264.443	-194.23
264.712	-110.23
264.981	43.77
265.25	-35.23
265.519	-127.23
265.788	-142.23
266.057	33.77
266.325	63.77
266.594	-42.23
266.863	-105.23
267.132	34.77
267.401	6.77
267.67	-188.23
267.939	-134.23
268.208	38.77
268.477	66.77
268.745	-142.23
269.014	-101.23
269.283	153.77
269.552	46.77
269.821	-112.23
270.089	-1.23
270.358	11.77
270.627	-24.23
270.896	-130.23
271.164	-159.23
271.433	31.77
271.702	102.77
271.971	-145.23
272.239	-117.23
272.508	34.77
272.777	-32.23
273.045	-25.23
273.314	-30.23
273.583	122.77
273.851	2.77
274.12	-133.23
274.388	-112.23
274.657	24.77
274.926	1.77
275.194	-148.23
275.463	-47.23
275.731	34.77
276	174.77
276.268	383.77
276.537	-66.23
276.805	30.77
277.074	41.77
277.342	-149.23
277.611	-86.23
277.879	111.77
278.148	53.77
278.416	-127.23
278.684	-106.23
278.953	-16.23
279.221	-31.23
279.49	-171.23
279.758	-97.23
280.026	10.77
280.295	20.77
280.563	-101.23
280.831	712.77
281.1	1786.77
281.368	172.77
281.636	-90.23
281.904	-93.23
282.173	17.77
282.441	-53.23
282.709	-95.23
282.977	30.77
283.246	54.77
283.514	-23.23
283.782	-61.23
284.05	26.77
284.318	82.77
284.587	-15.23
284.855	-111.23
285.123	-32.23
285.391	70.77
285.659	34.77
285.927	-150.23
286.195	-54.23
286.463	64.77
286.732	0.77
287	-120.23
287.268	-54.23
287.536	35.77
287.804	-29.23
288.072	-136.23
288.34	-90.23
288.608	68.77
288.876	-38.23
289.144	-120.23
289.412	-10.23
289.68	51.77
289.948	-20.23
290.215	-109.23
290.483	-72.23
290.751	111.77
291.019	111.77
291.287	-160.23
291.555	-101.23
291.823	42.77
292.091	-10.23
292.358	-61.23
292.626	-20.23
292.894	76.77
293.162	25.77
293.43	-100.23
293.697	-55.23
293.965	77.77
294.233	-8.23
294.501	-157.23
294.768	-60.23
295.036	81.77
295.304	32.77
295.572	-133.23
295.839	-107.23
296.107	114.77
296.375	22.77
296.642	-117.23
296.91	-121.23
297.178	51.77
297.445	191.77
297.713	107.77
297.98	-79.23
298.248	-17.23
298.516	-25.23
298.783	-101.23
299.051	-105.23
299.318	21.77
299.586	-18.23
299.853	-96.23
300.121	-86.23
300.388	55.77
300.656	1.77
300.923	-137.23
301.191	-19.23
301.458	75.77
301.726	-4.23
301.993	-132.23
302.26	-74.23
302.528	48.77
302.795	6.77
303.063	-64.23
303.33	-44.23
303.597	40.77
303.865	25.77
304.132	-120.23
304.399	-125.23
304.667	-17.23
304.934	20.77
305.201	-107.23
305.469	-8.23
305.736	52.77
306.003	32.77
306.27	-55.23
306.538	-89.23
306.805	15.77
307.072	-4.23
307.339	-71.23
307.606	-36.23
307.874	154.77
308.141	68.77
308.408	-122.23
308.675	-99.23
308.942	-32.23
309.209	-59.23
309.477	-110.23
309.744	-77.23
310.011	41.77
310.278	49.77
310.545	-26.23
310.812	-36.23
311.079	152.77
311.346	216.77
311.613	63.77
311.88	-18.23
312.147	-52.23
312.414	-30.23
312.681	-92.23
312.948	-20.23
313.215	123.77
313.482	92.77
313.749	-82.23
314.016	-179.23
314.283	-30.23
314.55	68.77
314.817	-89.23
315.083	-123.23
315.35	-75.23
315.617	-117.23
315.884	-134.23
316.151	56.77
316.418	158.77
316.684	-10.23
316.951	-179.23
317.218	-96.23
317.485	8.77
317.752	-52.23
318.018	-111.23
318.285	-0.23
318.552	50.77
318.819	-45.23
319.085	-128.23
319.352	-34.23
319.619	53.77
319.885	-14.23
320.152	-185.23
320.419	-106.23
320.685	42.77
320.952	-15.23
321.219	-51.23
321.485	80.77
321.752	23.77
322.019	-31.23
322.285	35.77
322.552	4.77
322.818	147.77
323.085	-11.23
323.351	-118.23
323.618	1.77
323.884	67.77
324.151	-46.23
324.417	-19.23
324.684	-62.23
324.95	-38.23
325.217	-124.23
325.483	-157.23
325.75	-19.23
326.016	25.77
326.283	-8.23
326.549	-173.23
326.815	-75.23
327.082	117.77
327.348	28.77
327.615	-94.23
327.881	-23.23
328.147	114.77
328.414	118.77
328.68	17.77
328.946	-31.23
329.212	35.77
329.479	9.77
329.745	-103.23
330.011	-95.23
330.278	16.77
330.544	-45.23
330.81	-28.23
331.076	-12.23
331.342	-13.23
331.609	-23.23
331.875	-76.23
332.141	-79.23
332.407	33.77
332.673	0.77
332.94	-27.23
333.206	-46.23
333.472	46.77
333.738	71.77
334.004	-110.23
334.27	-4.23
334.536	18.77
334.802	-52.23
335.068	-101.23
335.334	10.77
335.6	35.77
335.866	-22.23
336.132	-154.23
336.398	-81.23
336.664	-18.23
336.93	-30.23
337.196	-89.23
337.462	-18.23
337.728	35.77
337.994	-30.23
338.26	-97.23
338.526	-32.23
338.792	-33.23
339.058	-42.23
339.324	-144.23
339.59	-17.23
339.856	74.77
340.121	-39.23
340.387	-117.23
340.653	83.77
340.919	145.77
341.185	42.77
341.45	-65.23
341.716	21.77
341.982	103.77
342.248	-40.23
342.514	-67.23
342.779	13.77
343.045	41.77
343.311	-0.23
343.576	-64.23
343.842	-22.23
344.108	133.77
344.374	26.77
344.639	-88.23
344.905	-74.23
345.171	66.77
345.436	-49.23
345.702	-97.23
345.967	57.77
346.233	94.77
346.499	27.77
346.764	-148.23
347.03	-56.23
347.295	-30.23
347.561	4.77
347.826	-30.23
348.092	-97.23
348.357	-20.23
348.623	-15.23
348.888	-110.23
349.154	-81.23
349.419	61.77
349.685	18.77
349.95	-51.23
350.216	-42.23
350.481	58.77
350.747	-40.23
351.012	-159.23
351.277	-99.23
351.543	47.77
351.808	-14.23
352.074	-153.23
352.339	-107.23
352.604	57.77
352.87	22.77
353.135	-94.23
353.4	-53.23
353.666	14.77
353.931	-11.23
354.196	-135.23
354.461	-115.23
354.727	54.77
354.992	35.77
355.257	-112.23
355.522	-14.23
355.788	44.77
356.053	92.77
356.318	-60.23
356.583	-78.23
356.848	139.77
357.113	241.77
357.379	-28.23
357.644	-55.23
357.909	137.77
358.174	149.77
358.439	-91.23
358.704	-24.23
358.969	92.77
359.234	97.77
359.499	-91.23
359.765	-0.23
360.03	125.77
360.295	120.77
360.56	-64.23
360.825	11.77
361.09	224.77
361.355	45.77
361.62	13.77
361.885	54.77
362.15	40.77
362.415	48.77
362.679	-20.23
362.944	129.77
363.209	163.77
363.474	163.77
363.739	102.77
364.004	16.77
364.269	95.77
364.534	151.77
364.799	107.77
365.063	100.77
365.328	216.77
365.593	190.77
365.858	73.77
366.123	84.77
366.387	236.77
366.652	146.77
366.917	38.77
367.182	130.77
367.447	267.77
367.711	223.77
367.976	162.77
368.241	224.77
368.505	297.77
368.77	203.77
369.035	191.77
369.299	254.77
369.564	305.77
369.829	213.77
370.093	171.77
370.358	171.77
370.623	289.77
370.887	317.77
371.152	195.77
371.416	259.77
371.681	305.77
371.946	214.77
372.21	208.77
372.475	341.77
372.739	378.77
373.004	324.77
373.268	285.77
373.533	355.77
373.797	431.77
374.062	432.77
374.326	275.77
374.591	361.77
374.855	449.77
375.12	395.77
375.384	251.77
375.648	342.77
375.913	492.77
376.177	518.77
376.442	405.77
376.706	433.77
376.97	595.77
377.235	531.77
377.499	501.77
377.763	532.77
378.028	518.77
378.292	581.77
378.556	502.77
378.821	458.77
379.085	571.77
379.349	533.77
379.614	481.77
379.878	590.77
380.142	751.77
380.406	679.77
380.671	673.77
380.935	842.77
381.199	969.77
381.463	850.77
381.727	797.77
381.991	793.77
382.256	873.77
382.52	838.77
382.784	847.77
383.048	979.77
383.312	940.77
383.576	935.77
383.84	828.77
384.104	891.77
384.369	1013.77
384.633	940.77
384.897	857.77
385.161	998.77
385.425	1109.77
385.689	1035.77
385.953	983.77
386.217	1012.77
386.481	1139.77
386.745	1162.77
387.009	1131.77
387.273	1110.77
387.537	1202.77
387.801	1239.77
388.064	1212.77
388.328	1281.77
388.592	1342.77
388.856	1297.77
389.12	1253.77
389.384	1330.77
389.648	1378.77
389.912	1446.77
390.176	1487.77
390.439	1609.77
390.703	1449.77
390.967	1438.77
391.231	1387.77
391.495	1472.77
391.758	1546.77
392.022	1566.77
392.286	1458.77
392.55	1499.77
392.813	1634.77
393.077	1695.77
393.341	1619.77
393.605	1730.77
393.868	1720.77
394.132	1727.77
394.396	1662.77
394.659	1810.77
394.923	1780.77
395.187	1746.77
395.45	1740.77
395.714	1825.77
395.978	1850.77
396.241	1840.77
396.505	1821.77
396.768	1901.77
397.032	1975.77
397.295	1999.77
397.559	1925.77
397.823	1880.77
398.086	2060.77
398.35	2028.77
398.613	1917.77
398.877	2015.77
399.14	2190.77
399.404	2258.77
399.667	2166.77
399.931	2087.77
400.194	2174.77
400.457	2181.77
400.721	2215.77
400.984	2303.77
401.248	2235.77
401.511	2235.77
401.775	2155.77
402.038	2230.77
402.301	2440.77
402.565	2427.77
402.828	2224.77
403.091	2296.77
403.355	2488.77
403.618	2509.77
403.881	2432.77
404.145	2471.77
404.408	2562.77
404.671	2543.77
404.934	2599.77
405.198	2649.77
405.461	2643.77
405.724	2651.77
405.987	2660.77
406.251	2740.77
406.514	2863.77
406.777	2705.77
407.04	2633.77
407.303	2618.77
407.567	2750.77
407.83	2830.77
408.093	2674.77
408.356	2808.77
408.619	2935.77
408.882	3004.77
409.145	2897.77
409.408	2853.77
409.672	2959.77
409.935	2873.77
410.198	2786.77
410.461	2890.77
410.724	3147.77
410.987	3073.77
411.25	2876.77
411.513	3028.77
411.776	3080.77
412.039	2960.77
412.302	2908.77
412.565	3021.77
412.828	3031.77
413.091	2997.77
413.354	2909.77
413.617	2918.77
413.879	3001.77
414.142	3033.77
414.405	2905.77
414.668	2921.77
414.931	3023.77
415.194	3016.77
415.457	2922.77
415.72	2989.77
415.983	3007.77
416.245	3024.77
416.508	2940.77
416.771	2899.77
417.034	3027.77
417.297	2994.77
417.559	2949.77
417.822	2925.77
418.085	3049.77
418.348	3056.77
418.61	2922.77
418.873	2867.77
419.136	2917.77
419.399	2927.77
419.661	2982.77
419.924	2955.77
420.187	3039.77
420.449	3031.77
420.712	2965.77
420.975	2942.77
421.237	3049.77
421.5	3079.77
421.762	3146.77
422.025	3170.77
422.288	3254.77
422.55	3065.77
422.813	2981.77
423.075	3087.77
423.338	3166.77
423.601	3202.77
423.863	3154.77
424.126	3198.77
424.388	3340.77
424.651	3284.77
424.913	3251.77
425.176	3257.77
425.438	3263.77
425.701	3293.77
425.963	3187.77
426.225	3199.77
426.488	3278.77
426.75	3334.77
427.013	3287.77
427.275	3344.77
427.538	3341.77
427.8	3345.77
428.062	3277.77
428.325	3330.77
428.587	3424.77
428.849	3393.77
429.112	3406.77
429.374	3387.77
429.636	3411.77
429.899	3511.77
430.161	3411.77
430.423	3455.77
430.686	3625.77
430.948	3601.77
431.21	3442.77
431.472	3403.77
431.735	3552.77
431.997	3590.77
432.259	3536.77
432.521	3422.77
432.783	3612.77
433.046	3606.77
433.308	3449.77
433.57	3464.77
433.832	3752.77
434.094	3557.77
434.356	3425.77
434.618	3541.77
434.881	3589.77
435.143	3692.77
435.405	3689.77
435.667	3637.77
435.929	3640.77
436.191	3639.77
436.453	3589.77
436.715	3715.77
436.977	3852.77
437.239	3861.77
437.501	3779.77
437.763	3789.77
438.025	3859.77
438.287	3794.77
438.549	3766.77
438.811	3765.77
439.073	3791.77
439.335	3818.77
439.597	3741.77
439.859	3731.77
440.121	3863.77
440.383	3775.77
440.645	3719.77
440.907	3795.77
441.168	3797.77
441.43	3770.77
441.692	3820.77
441.954	3867.77
442.216	3924.77
442.478	3855.77
442.74	3715.77
443.001	3873.77
443.263	4069.77
443.525	3895.77
443.787	3759.77
444.048	3752.77
444.31	3812.77
444.572	3861.77
444.834	3826.77
445.095	3805.77
445.357	3987.77
445.619	3802.77
445.881	3665.77
446.142	3781.77
446.404	3804.77
446.666	3813.77
446.927	3843.77
447.189	3998.77
447.451	4027.77
447.712	3829.77
447.974	3687.77
448.235	3731.77
448.497	3835.77
448.759	3803.77
449.02	3808.77
449.282	3767.77
449.543	3901.77
449.805	3951.77
450.066	3725.77
450.328	3832.77
450.59	4042.77
450.851	3873.77
451.113	3735.77
451.374	3711.77
451.636	3937.77
451.897	3953.77
452.158	3840.77
452.42	3932.77
452.681	3983.77
452.943	3785.77
453.204	3823.77
453.466	3837.77
453.727	3792.77
453.988	3850.77
454.25	3764.77
454.511	3811.77
454.773	3909.77
455.034	4008.77
455.295	3752.77
455.557	3907.77
455.818	3896.77
456.079	3868.77
456.341	3974.77
456.602	4015.77
456.863	4097.77
457.124	3932.77
457.386	3786.77
457.647	3803.77
457.908	3913.77
458.169	4065.77
458.431	3895.77
458.692	3954.77
458.953	3993.77
459.214	3958.77
459.476	4128.77
459.737	4260.77
459.998	4251.77
460.259	4086.77
460.52	4057.77
460.781	4214.77
461.043	4355.77
461.304	4242.77
461.565	4070.77
461.826	4143.77
462.087	4306.77
462.348	4425.77
462.609	4361.77
462.87	4329.77
463.131	4289.77
463.392	4486.77
463.653	4473.77
463.914	4468.77
464.175	4440.77
464.436	4488.77
464.697	4492.77
464.958	4393.77
465.219	4455.77
465.48	4514.77
465.741	4570.77
466.002	4507.77
466.263	4682.77
466.524	4690.77
466.785	4538.77
467.046	4646.77
467.307	4797.77
467.568	4839.77
467.829	4828.77
468.089	4811.77
468.35	4862.77
468.611	4804.77
468.872	4741.77
469.133	4953.77
469.394	5134.77
469.655	5205.77
469.915	5078.77
470.176	4945.77
470.437	5032.77
470.698	5210.77
470.958	5208.77
471.219	5230.77
471.48	5354.77
471.741	5458.77
472.001	5422.77
472.262	5365.77
472.523	5608.77
472.784	5704.77
473.044	5558.77
473.305	5611.77
473.566	5649.77
473.826	5778.77
474.087	5739.77
474.348	5805.77
474.608	5967.77
474.869	5971.77
475.129	5878.77
475.39	5957.77
475.651	6119.77
475.911	6289.77
476.172	6132.77
476.432	6210.77
476.693	6435.77
476.953	6342.77
477.214	6357.77
477.475	6430.77
477.735	6470.77
477.996	6611.77
478.256	6449.77
478.517	6580.77
478.777	6711.77
479.038	6814.77
479.298	6883.77
479.558	6875.77
479.819	6969.77
480.079	6988.77
480.34	7048.77
480.6	7040.77
480.861	7216.77
481.121	7241.77
481.381	7207.77
481.642	7287.77
481.902	7298.77
482.162	7344.77
482.423	7358.77
482.683	7469.77
482.943	7636.77
483.204	7536.77
483.464	7486.77
483.724	7548.77
483.985	7652.77
484.245	7799.77
484.505	7731.77
484.765	7837.77
485.026	7935.77
485.286	7977.77
485.546	7945.77
485.806	7946.77
486.067	8015.77
486.327	7947.77
486.587	7923.77
486.847	7975.77
487.107	8138.77
487.368	8160.77
487.628	8065.77
487.888	8179.77
488.148	8314.77
488.408	8156.77
488.668	8264.77
488.928	8331.77
489.188	8346.77
489.449	8393.77
489.709	8313.77
489.969	8345.77
490.229	8451.77
490.489	8481.77
490.749	8371.77
491.009	8370.77
491.269	8488.77
491.529	8479.77
491.789	8514.77
492.049	8526.77
492.309	8602.77
492.569	8517.77
492.829	8514.77
493.089	8496.77
493.349	8656.77
493.609	8577.77
493.869	8483.77
494.129	8630.77
494.389	8675.77
494.648	8575.77
494.908	8493.77
495.168	8628.77
495.428	8792.77
495.688	8683.77
495.948	8540.77
496.208	8593.77
496.467	8640.77
496.727	8675.77
496.987	8659.77
497.247	8764.77
497.507	8857.77
497.767	8801.77
498.026	8609.77
498.286	8728.77
498.546	8919.77
498.806	8781.77
499.065	8850.77
499.325	8730.77
499.585	8696.77
499.845	8788.77
500.104	8790.77
500.364	8777.77
500.624	8773.77
500.883	8749.77
501.143	8767.77
501.403	8863.77
501.662	8946.77
501.922	8829.77
502.182	8658.77
502.441	8618.77
502.701	8792.77
502.96	8947.77
503.22	8813.77
503.48	8769.77
503.739	8850.77
503.999	8803.77
504.258	8777.77
504.518	8781.77
504.777	8883.77
505.037	8876.77
505.296	8764.77
505.556	8742.77
505.815	8911.77
506.075	8971.77
506.334	8879.77
506.594	8718.77
506.853	8771.77
507.113	8784.77
507.372	8661.77
507.632	8801.77
507.891	8853.77
508.151	8848.77
508.41	8707.77
508.669	8741.77
508.929	8843.77
509.188	8773.77
509.447	8774.77
509.707	8729.77
509.966	8807.77
510.226	8818.77
510.485	8760.77
510.744	8815.77
511.004	8862.77
511.263	8759.77
511.522	8723.77
511.781	8703.77
512.041	8867.77
512.3	8810.77
512.559	8837.77
512.818	8855.77
513.078	8888.77
513.337	8872.77
513.596	8707.77
513.855	8786.77
514.115	8873.77
514.374	8813.77
514.633	8729.77
514.892	8699.77
515.151	8892.77
515.41	8926.77
515.67	8865.77
515.929	8839.77
516.188	8962.77
516.447	8895.77
516.706	8797.77
516.965	8833.77
517.224	8870.77
517.483	8857.77
517.743	8778.77
518.002	8851.77
518.261	8907.77
518.52	8899.77
518.779	8831.77
519.038	8860.77
519.297	8862.77
519.556	8899.77
519.815	8805.77
520.074	8784.77
520.333	8935.77
520.592	8913.77
520.851	8775.77
521.11	8882.77
521.369	8966.77
521.628	8831.77
521.887	8745.77
522.145	8809.77
522.404	8822.77
522.663	8892.77
522.922	8739.77
523.181	8695.77
523.44	8872.77
523.699	8940.77
523.958	8719.77
524.217	8723.77
524.475	8758.77
524.734	8784.77
524.993	8774.77
525.252	8800.77
525.511	8793.77
525.769	8788.77
526.028	8698.77
526.287	8747.77
526.546	8827.77
526.805	8803.77
527.063	8709.77
527.322	8715.77
527.581	8778.77
527.839	8810.77
528.098	8823.77
528.357	8798.77
528.616	8786.77
528.874	8764.77
529.133	8733.77
529.392	8771.77
529.65	8777.77
529.909	8754.77
530.168	8669.77
530.426	8671.77
