Data from HR4C21111__28__09-59-06-450.txt Node

Date: Mon Feb 22 09:59:06 IST 2021
User: Kapil
Spectrometer: HR4C2111
Trigger mode: 4
Integration Time (sec): 2.300000E0
Scans to average: 1
Electric dark correction enabled: true
Nonlinearity correction enabled: false
Boxcar width: 0
XAxis mode: Wavelengths
Number of Pixels in Spectrum: 3648
>>>>>Begin Spectral Data<<<<<
189.472	-437.31
189.745	-437.31
190.017	-437.31
190.289	-467.31
190.561	-301.31
190.834	-20.31
191.106	-108.31
191.378	22.69
191.65	10.69
191.923	-136.31
192.195	-101.31
192.467	128.69
192.739	107.69
193.011	-25.31
193.284	85.69
193.556	167.69
193.828	-27.31
194.1	-104.31
194.372	-121.31
194.644	54.69
194.916	75.69
195.188	-156.31
195.46	-71.31
195.732	69.69
196.004	-22.31
196.276	-105.31
196.548	-54.31
196.82	78.69
197.092	67.69
197.364	-132.31
197.636	-90.31
197.908	12.69
198.18	-41.31
198.452	-77.31
198.724	-37.31
198.996	44.69
199.268	80.69
199.54	-12.31
199.811	-117.31
200.083	101.69
200.355	22.69
200.627	-180.31
200.899	-73.31
201.171	38.69
201.442	-53.31
201.714	-168.31
201.986	-91.31
202.258	60.69
202.529	118.69
202.801	9.69
203.073	80.69
203.345	187.69
203.616	11.69
203.888	-144.31
204.16	-146.31
204.431	81.69
204.703	-6.31
204.974	-143.31
205.246	13.69
205.518	204.69
205.789	-0.31
206.061	-138.31
206.332	-104.31
206.604	24.69
206.876	102.69
207.147	134.69
207.419	11.69
207.69	130.69
207.962	-20.31
208.233	-184.31
208.505	6.69
208.776	168.69
209.047	71.69
209.319	-125.31
209.59	-79.31
209.862	119.69
210.133	-20.31
210.404	-159.31
210.676	-110.31
210.947	87.69
211.219	72.69
211.49	-125.31
211.761	-50.31
212.033	42.69
212.304	-25.31
212.575	-175.31
212.846	-87.31
213.118	31.69
213.389	-68.31
213.66	-97.31
213.931	-25.31
214.203	20.69
214.474	-33.31
214.745	-121.31
215.016	139.69
215.287	449.69
215.559	79.69
215.83	-108.31
216.101	-52.31
216.372	12.69
216.643	94.69
216.914	25.69
217.185	-77.31
217.456	160.69
217.727	35.69
217.998	-147.31
218.269	-38.31
218.54	43.69
218.811	-3.31
219.082	-91.31
219.353	-58.31
219.624	-8.31
219.895	-37.31
220.166	-137.31
220.437	-105.31
220.708	106.69
220.979	-6.31
221.25	-139.31
221.521	-91.31
221.792	27.69
222.063	83.69
222.334	19.69
222.604	163.69
222.875	170.69
223.146	96.69
223.417	-164.31
223.688	-36.31
223.958	118.69
224.229	-53.31
224.5	-183.31
224.771	-80.31
225.041	68.69
225.312	48.69
225.583	-109.31
225.854	-41.31
226.124	99.69
226.395	-3.31
226.666	-125.31
226.936	-98.31
227.207	69.69
227.478	-32.31
227.748	-79.31
228.019	46.69
228.289	232.69
228.56	-32.31
228.831	-39.31
229.101	62.69
229.372	61.69
229.642	-18.31
229.913	-160.31
230.183	-117.31
230.454	-9.31
230.724	-3.31
230.995	-91.31
231.265	-50.31
231.536	73.69
231.806	43.69
232.076	-105.31
232.347	-112.31
232.617	34.69
232.888	45.69
233.158	-48.31
233.428	-132.31
233.699	-18.31
233.969	-41.31
234.239	-154.31
234.51	-75.31
234.78	56.69
235.05	-1.31
235.321	-115.31
235.591	-62.31
235.861	64.69
236.131	-58.31
236.402	-195.31
236.672	-84.31
236.942	55.69
237.212	58.69
237.483	-47.31
237.753	0.69
238.023	161.69
238.293	22.69
238.563	-77.31
238.833	-85.31
239.103	82.69
239.374	-13.31
239.644	-147.31
239.914	-29.31
240.184	131.69
240.454	-3.31
240.724	-164.31
240.994	-65.31
241.264	25.69
241.534	69.69
241.804	-12.31
242.074	-87.31
242.344	-27.31
242.614	-61.31
242.884	-166.31
243.154	-115.31
243.424	46.69
243.694	75.69
243.964	-90.31
244.234	-75.31
244.503	129.69
244.773	26.69
245.043	-222.31
245.313	-141.31
245.583	118.69
245.853	97.69
246.123	-163.31
246.392	-100.31
246.662	11.69
246.932	-8.31
247.202	-176.31
247.471	-60.31
247.741	260.69
248.011	108.69
248.281	-143.31
248.55	-65.31
248.82	91.69
249.09	-4.31
249.359	-93.31
249.629	-63.31
249.899	66.69
250.168	66.69
250.438	-22.31
250.708	-99.31
250.977	94.69
251.247	70.69
251.516	-109.31
251.786	-40.31
252.055	123.69
252.325	23.69
252.595	-95.31
252.864	-74.31
253.134	57.69
253.403	-35.31
253.673	-180.31
253.942	-110.31
254.212	39.69
254.481	-2.31
254.75	-140.31
255.02	-89.31
255.289	75.69
255.559	-5.31
255.828	-120.31
256.097	-27.31
256.367	42.69
256.636	-54.31
256.906	-130.31
257.175	-11.31
257.444	262.69
257.714	66.69
257.983	-85.31
258.252	-37.31
258.521	18.69
258.791	39.69
259.06	-113.31
259.329	-29.31
259.598	61.69
259.868	-7.31
260.137	-120.31
260.406	22.69
260.675	88.69
260.944	30.69
261.214	-132.31
261.483	-53.31
261.752	187.69
262.021	13.69
262.29	-170.31
262.559	-119.31
262.828	14.69
263.097	-44.31
263.366	-207.31
263.635	-86.31
263.905	141.69
264.174	23.69
264.443	-205.31
264.712	-98.31
264.981	44.69
265.25	-44.31
265.519	-144.31
265.788	-131.31
266.057	38.69
266.325	65.69
266.594	-57.31
266.863	-124.31
267.132	30.69
267.401	5.69
267.67	-194.31
267.939	-133.31
268.208	28.69
268.477	71.69
268.745	-138.31
269.014	-96.31
269.283	139.69
269.552	38.69
269.821	-116.31
270.089	-13.31
270.358	14.69
270.627	-19.31
270.896	-139.31
271.164	-169.31
271.433	16.69
271.702	97.69
271.971	-137.31
272.239	-141.31
272.508	17.69
272.777	-27.31
273.045	-28.31
273.314	-27.31
273.583	99.69
273.851	-14.31
274.12	-145.31
274.388	-106.31
274.657	12.69
274.926	-9.31
275.194	-162.31
275.463	-61.31
275.731	42.69
276	198.69
276.268	387.69
276.537	-81.31
276.805	31.69
277.074	40.69
277.342	-173.31
277.611	-92.31
277.879	114.69
278.148	58.69
278.416	-120.31
278.684	-98.31
278.953	-10.31
279.221	-28.31
279.49	-192.31
279.758	-102.31
280.026	11.69
280.295	9.69
280.563	-117.31
280.831	1039.69
281.1	2481.69
281.368	234.69
281.636	-78.31
281.904	-99.31
282.173	-12.31
282.441	-55.31
282.709	-79.31
282.977	37.69
283.246	56.69
283.514	-21.31
283.782	-58.31
284.05	20.69
284.318	72.69
284.587	-21.31
284.855	-130.31
285.123	-45.31
285.391	76.69
285.659	59.69
285.927	-140.31
286.195	-61.31
286.463	60.69
286.732	-0.31
287	-102.31
287.268	-51.31
287.536	27.69
287.804	-24.31
288.072	-130.31
288.34	-67.31
288.608	71.69
288.876	-35.31
289.144	-113.31
289.412	-13.31
289.68	47.69
289.948	-24.31
290.215	-105.31
290.483	-106.31
290.751	98.69
291.019	102.69
291.287	-171.31
291.555	-108.31
291.823	40.69
292.091	-19.31
292.358	-82.31
292.626	-26.31
292.894	78.69
293.162	55.69
293.43	-103.31
293.697	-84.31
293.965	47.69
294.233	-23.31
294.501	-157.31
294.768	-68.31
295.036	71.69
295.304	25.69
295.572	-133.31
295.839	-98.31
296.107	114.69
296.375	22.69
296.642	-120.31
296.91	-109.31
297.178	66.69
297.445	176.69
297.713	89.69
297.98	-79.31
298.248	-27.31
298.516	-40.31
298.783	-111.31
299.051	-110.31
299.318	26.69
299.586	-22.31
299.853	-86.31
300.121	-63.31
300.388	57.69
300.656	-7.31
300.923	-142.31
301.191	-39.31
301.458	60.69
301.726	-12.31
301.993	-151.31
302.26	-98.31
302.528	43.69
302.795	-3.31
303.063	-81.31
303.33	-53.31
303.597	36.69
303.865	27.69
304.132	-129.31
304.399	-110.31
304.667	-6.31
304.934	16.69
305.201	-117.31
305.469	-12.31
305.736	64.69
306.003	29.69
306.27	-50.31
306.538	-89.31
306.805	-6.31
307.072	-20.31
307.339	-64.31
307.606	-40.31
307.874	166.69
308.141	83.69
308.408	-117.31
308.675	-103.31
308.942	-47.31
309.209	-69.31
309.477	-126.31
309.744	-84.31
310.011	30.69
310.278	60.69
310.545	-25.31
310.812	-46.31
311.079	133.69
311.346	202.69
311.613	71.69
311.88	-24.31
312.147	-56.31
312.414	-27.31
312.681	-101.31
312.948	-22.31
313.215	140.69
313.482	94.69
313.749	-102.31
314.016	-191.31
314.283	-44.31
314.55	65.69
314.817	-94.31
315.083	-126.31
315.35	-69.31
315.617	-143.31
315.884	-149.31
316.151	73.69
316.418	185.69
316.684	-14.31
316.951	-180.31
317.218	-102.31
317.485	13.69
317.752	-48.31
318.018	-114.31
318.285	-2.31
318.552	39.69
318.819	-44.31
319.085	-138.31
319.352	-58.31
319.619	42.69
319.885	-14.31
320.152	-197.31
320.419	-95.31
320.685	49.69
320.952	-16.31
321.219	-54.31
321.485	73.69
321.752	13.69
322.019	-37.31
322.285	43.69
322.552	-12.31
322.818	123.69
323.085	-24.31
323.351	-124.31
323.618	4.69
323.884	57.69
324.151	-61.31
324.417	-28.31
324.684	-70.31
324.95	-54.31
325.217	-140.31
325.483	-165.31
325.75	-13.31
326.016	12.69
326.283	-28.31
326.549	-183.31
326.815	-58.31
327.082	111.69
327.348	11.69
327.615	-100.31
327.881	-19.31
328.147	136.69
328.414	140.69
328.68	29.69
328.946	-21.31
329.212	42.69
329.479	21.69
329.745	-99.31
330.011	-110.31
330.278	9.69
330.544	-51.31
330.81	-38.31
331.076	-27.31
331.342	-32.31
331.609	-29.31
331.875	-83.31
332.141	-94.31
332.407	35.69
332.673	-3.31
332.94	-17.31
333.206	-36.31
333.472	67.69
333.738	87.69
334.004	-103.31
334.27	-18.31
334.536	15.69
334.802	-24.31
335.068	-90.31
335.334	-4.31
335.6	28.69
335.866	-36.31
336.132	-166.31
336.398	-87.31
336.664	-10.31
336.93	-28.31
337.196	-81.31
337.462	4.69
337.728	33.69
337.994	-38.31
338.26	-109.31
338.526	-40.31
338.792	-45.31
339.058	-42.31
339.324	-126.31
339.59	-0.31
339.856	74.69
340.121	-39.31
340.387	-104.31
340.653	95.69
340.919	167.69
341.185	79.69
341.45	-46.31
341.716	57.69
341.982	135.69
342.248	-41.31
342.514	-86.31
342.779	1.69
343.045	35.69
343.311	-14.31
343.576	-85.31
343.842	-25.31
344.108	143.69
344.374	37.69
344.639	-96.31
344.905	-74.31
345.171	82.69
345.436	-37.31
345.702	-81.31
345.967	63.69
346.233	102.69
346.499	40.69
346.764	-159.31
347.03	-57.31
347.295	-11.31
347.561	27.69
347.826	-3.31
348.092	-97.31
348.357	0.69
348.623	-11.31
348.888	-101.31
349.154	-51.31
349.419	77.69
349.685	42.69
349.95	-37.31
350.216	-20.31
350.481	73.69
350.747	-9.31
351.012	-120.31
351.277	-46.31
351.543	82.69
351.808	33.69
352.074	-127.31
352.339	-68.31
352.604	101.69
352.87	73.69
353.135	-43.31
353.4	-4.31
353.666	49.69
353.931	32.69
354.196	-103.31
354.461	-70.31
354.727	95.69
354.992	63.69
355.257	-65.31
355.522	39.69
355.788	80.69
356.053	149.69
356.318	-10.31
356.583	-34.31
356.848	177.69
357.113	295.69
357.379	28.69
357.644	-6.31
357.909	182.69
358.174	213.69
358.439	-50.31
358.704	30.69
358.969	165.69
359.234	165.69
359.499	-30.31
359.765	70.69
360.03	190.69
360.295	190.69
360.56	46.69
360.825	110.69
361.09	323.69
361.355	120.69
361.62	91.69
361.885	144.69
362.15	102.69
362.415	125.69
362.679	75.69
362.944	221.69
363.209	247.69
363.474	258.69
363.739	211.69
364.004	145.69
364.269	214.69
364.534	269.69
364.799	220.69
365.063	224.69
365.328	335.69
365.593	337.69
365.858	190.69
366.123	195.69
366.387	358.69
366.652	293.69
366.917	192.69
367.182	259.69
367.447	412.69
367.711	356.69
367.976	288.69
368.241	368.69
368.505	454.69
368.77	351.69
369.035	337.69
369.299	398.69
369.564	414.69
369.829	379.69
370.093	346.69
370.358	339.69
370.623	479.69
370.887	487.69
371.152	348.69
371.416	431.69
371.681	473.69
371.946	391.69
372.21	376.69
372.475	531.69
372.739	553.69
373.004	519.69
373.268	494.69
373.533	549.69
373.797	630.69
374.062	616.69
374.326	460.69
374.591	552.69
374.855	653.69
375.12	600.69
375.384	463.69
375.648	551.69
375.913	717.69
376.177	757.69
376.442	622.69
376.706	633.69
376.97	756.69
377.235	743.69
377.499	731.69
377.763	764.69
378.028	765.69
378.292	817.69
378.556	739.69
378.821	685.69
379.085	792.69
379.349	747.69
379.614	707.69
379.878	849.69
380.142	1055.69
380.406	967.69
380.671	979.69
380.935	1112.69
381.199	1227.69
381.463	1113.69
381.727	1064.69
381.991	1049.69
382.256	1153.69
382.52	1115.69
382.784	1154.69
383.048	1284.69
383.312	1215.69
383.576	1199.69
383.84	1109.69
384.104	1174.69
384.369	1305.69
384.633	1219.69
384.897	1127.69
385.161	1277.69
385.425	1427.69
385.689	1351.69
385.953	1342.69
386.217	1367.69
386.481	1471.69
386.745	1509.69
387.009	1467.69
387.273	1452.69
387.537	1490.69
387.801	1541.69
388.064	1526.69
388.328	1648.69
388.592	1722.69
388.856	1684.69
389.12	1633.69
389.384	1725.69
389.648	1758.69
389.912	1849.69
390.176	1849.69
390.439	1971.69
390.703	1811.69
390.967	1807.69
391.231	1729.69
391.495	1838.69
391.758	1939.69
392.022	1987.69
392.286	1846.69
392.55	1891.69
392.813	2029.69
393.077	2106.69
393.341	2069.69
393.605	2148.69
393.868	2113.69
394.132	2134.69
394.396	2101.69
394.659	2261.69
394.923	2220.69
395.187	2187.69
395.45	2204.69
395.714	2279.69
395.978	2311.69
396.241	2331.69
396.505	2288.69
396.768	2349.69
397.032	2428.69
397.295	2452.69
397.559	2397.69
397.823	2381.69
398.086	2535.69
398.35	2504.69
398.613	2469.69
398.877	2528.69
399.14	2702.69
399.404	2774.69
399.667	2666.69
399.931	2616.69
400.194	2738.69
400.457	2737.69
400.721	2749.69
400.984	2857.69
401.248	2801.69
401.511	2790.69
401.775	2666.69
402.038	2718.69
402.301	2968.69
402.565	3002.69
402.828	2817.69
403.091	2888.69
403.355	3067.69
403.618	3039.69
403.881	3027.69
404.145	3077.69
404.408	3156.69
404.671	3103.69
404.934	3174.69
405.198	3256.69
405.461	3242.69
405.724	3285.69
405.987	3303.69
406.251	3357.69
406.514	3471.69
406.777	3345.69
407.04	3312.69
407.303	3288.69
407.567	3443.69
407.83	3514.69
408.093	3372.69
408.356	3513.69
408.619	3600.69
408.882	3634.69
409.145	3526.69
409.408	3492.69
409.672	3621.69
409.935	3581.69
410.198	3454.69
410.461	3539.69
410.724	3806.69
410.987	3739.69
411.25	3542.69
411.513	3672.69
411.776	3766.69
412.039	3635.69
412.302	3597.69
412.565	3651.69
412.828	3688.69
413.091	3719.69
413.354	3666.69
413.617	3609.69
413.879	3690.69
414.142	3726.69
414.405	3554.69
414.668	3582.69
414.931	3711.69
415.194	3712.69
415.457	3584.69
415.72	3661.69
415.983	3707.69
416.245	3750.69
416.508	3614.69
416.771	3522.69
417.034	3714.69
417.297	3708.69
417.559	3667.69
417.822	3659.69
418.085	3730.69
418.348	3737.69
418.61	3613.69
418.873	3591.69
419.136	3604.69
419.399	3630.69
419.661	3676.69
419.924	3613.69
420.187	3713.69
420.449	3711.69
420.712	3689.69
420.975	3666.69
421.237	3769.69
421.5	3748.69
421.762	3819.69
422.025	3868.69
422.288	3959.69
422.55	3752.69
422.813	3674.69
423.075	3791.69
423.338	3883.69
423.601	3924.69
423.863	3903.69
424.126	3958.69
424.388	4053.69
424.651	3992.69
424.913	3989.69
425.176	4050.69
425.438	4013.69
425.701	3993.69
425.963	3920.69
426.225	3934.69
426.488	3998.69
426.75	4016.69
427.013	4009.69
427.275	4089.69
427.538	4090.69
427.8	4127.69
428.062	4024.69
428.325	4067.69
428.587	4167.69
428.849	4180.69
429.112	4197.69
429.374	4162.69
429.636	4117.69
429.899	4211.69
430.161	4165.69
430.423	4240.69
430.686	4457.69
430.948	4407.69
431.21	4226.69
431.472	4133.69
431.735	4309.69
431.997	4345.69
432.259	4296.69
432.521	4179.69
432.783	4313.69
433.046	4328.69
433.308	4202.69
433.57	4269.69
433.832	4523.69
434.094	4343.69
434.356	4182.69
434.618	4266.69
434.881	4367.69
435.143	4497.69
435.405	4459.69
435.667	4390.69
435.929	4437.69
436.191	4462.69
436.453	4334.69
436.715	4465.69
436.977	4622.69
437.239	4730.69
437.501	4637.69
437.763	4582.69
438.025	4649.69
438.287	4580.69
438.549	4585.69
438.811	4509.69
439.073	4567.69
439.335	4589.69
439.597	4504.69
439.859	4479.69
440.121	4658.69
440.383	4612.69
440.645	4556.69
440.907	4598.69
441.168	4636.69
441.43	4602.69
441.692	4618.69
441.954	4696.69
442.216	4763.69
442.478	4655.69
442.74	4572.69
443.001	4695.69
443.263	4882.69
443.525	4663.69
443.787	4519.69
444.048	4572.69
444.31	4635.69
444.572	4699.69
444.834	4653.69
445.095	4641.69
445.357	4830.69
445.619	4637.69
445.881	4485.69
446.142	4626.69
446.404	4605.69
446.666	4611.69
446.927	4612.69
447.189	4735.69
447.451	4806.69
447.712	4620.69
447.974	4474.69
448.235	4523.69
448.497	4662.69
448.759	4535.69
449.02	4587.69
449.282	4550.69
449.543	4620.69
449.805	4690.69
450.066	4446.69
450.328	4584.69
450.59	4807.69
450.851	4640.69
451.113	4495.69
451.374	4466.69
451.636	4718.69
451.897	4749.69
452.158	4622.69
452.42	4670.69
452.681	4712.69
452.943	4554.69
453.204	4568.69
453.466	4571.69
453.727	4567.69
453.988	4635.69
454.25	4533.69
454.511	4574.69
454.773	4663.69
455.034	4759.69
455.295	4525.69
455.557	4697.69
455.818	4709.69
456.079	4630.69
456.341	4753.69
456.602	4797.69
456.863	4847.69
457.124	4705.69
457.386	4552.69
457.647	4556.69
457.908	4668.69
458.169	4814.69
458.431	4670.69
458.692	4698.69
458.953	4753.69
459.214	4773.69
459.476	4927.69
459.737	5035.69
459.998	5032.69
460.259	4866.69
460.52	4823.69
460.781	4960.69
461.043	5138.69
461.304	5003.69
461.565	4803.69
461.826	4916.69
462.087	5098.69
462.348	5246.69
462.609	5201.69
462.87	5175.69
463.131	5082.69
463.392	5330.69
463.653	5337.69
463.914	5302.69
464.175	5283.69
464.436	5358.69
464.697	5400.69
464.958	5239.69
465.219	5253.69
465.48	5360.69
465.741	5460.69
466.002	5378.69
466.263	5529.69
466.524	5593.69
466.785	5455.69
467.046	5526.69
467.307	5667.69
467.568	5742.69
467.829	5705.69
468.089	5678.69
468.35	5745.69
468.611	5662.69
468.872	5598.69
469.133	5820.69
469.394	6005.69
469.655	6166.69
469.915	6042.69
470.176	5858.69
470.437	5968.69
470.698	6141.69
470.958	6160.69
471.219	6202.69
471.48	6362.69
471.741	6501.69
472.001	6411.69
472.262	6433.69
472.523	6666.69
472.784	6751.69
473.044	6658.69
473.305	6720.69
473.566	6727.69
473.826	6798.69
474.087	6745.69
474.348	6864.69
474.608	7070.69
474.869	7004.69
475.129	6908.69
475.39	6989.69
475.651	7160.69
475.911	7333.69
476.172	7254.69
476.432	7368.69
476.693	7603.69
476.953	7515.69
477.214	7528.69
477.475	7570.69
477.735	7589.69
477.996	7781.69
478.256	7599.69
478.517	7727.69
478.777	7843.69
479.038	7996.69
479.298	8079.69
479.558	8126.69
479.819	8231.69
480.079	8266.69
480.34	8356.69
480.6	8234.69
480.861	8388.69
481.121	8464.69
481.381	8460.69
481.642	8613.69
481.902	8611.69
482.162	8617.69
482.423	8665.69
482.683	8737.69
482.943	8827.69
483.204	8805.69
483.464	8818.69
483.724	8844.69
483.985	8943.69
484.245	9082.69
484.505	9090.69
484.765	9198.69
485.026	9269.69
485.286	9339.69
485.546	9307.69
485.806	9326.69
486.067	9420.69
486.327	9287.69
486.587	9271.69
486.847	9417.69
487.107	9574.69
487.368	9578.69
487.628	9547.69
487.888	9670.69
488.148	9721.69
488.408	9631.69
488.668	9729.69
488.928	9744.69
489.188	9755.69
489.449	9873.69
489.709	9746.69
489.969	9810.69
490.229	9946.69
490.489	9953.69
490.749	9793.69
491.009	9713.69
491.269	9888.69
491.529	9984.69
491.789	9958.69
492.049	10017.69
492.309	10154.69
492.569	10062.69
492.829	10028.69
493.089	10030.69
493.349	10223.69
493.609	10050.69
493.869	9953.69
494.129	10152.69
494.389	10252.69
494.648	10117.69
494.908	10076.69
495.168	10155.69
495.428	10231.69
495.688	10197.69
495.948	10077.69
496.208	10061.69
496.467	10135.69
496.727	10150.69
496.987	10151.69
497.247	10202.69
497.507	10295.69
497.767	10361.69
498.026	10154.69
498.286	10287.69
498.546	10455.69
498.806	10322.69
499.065	10331.69
499.325	10291.69
499.585	10320.69
499.845	10346.69
500.104	10331.69
500.364	10364.69
500.624	10370.69
500.883	10315.69
501.143	10390.69
501.403	10424.69
501.662	10450.69
501.922	10456.69
502.182	10266.69
502.441	10205.69
502.701	10302.69
502.96	10396.69
503.22	10368.69
503.48	10355.69
503.739	10419.69
503.999	10307.69
504.258	10199.69
504.518	10271.69
504.777	10431.69
505.037	10428.69
505.296	10318.69
505.556	10266.69
505.815	10426.69
506.075	10529.69
506.334	10457.69
506.594	10300.69
506.853	10289.69
507.113	10338.69
507.372	10207.69
507.632	10312.69
507.891	10366.69
508.151	10398.69
508.41	10246.69
508.669	10261.69
508.929	10323.69
509.188	10264.69
509.447	10289.69
509.707	10238.69
509.966	10291.69
510.226	10337.69
510.485	10315.69
510.744	10351.69
511.004	10455.69
511.263	10389.69
511.522	10286.69
511.781	10287.69
512.041	10407.69
512.3	10345.69
512.559	10283.69
512.818	10413.69
513.078	10471.69
513.337	10454.69
513.596	10349.69
513.855	10320.69
514.115	10370.69
514.374	10424.69
514.633	10364.69
514.892	10354.69
515.151	10476.69
515.41	10510.69
515.67	10423.69
515.929	10401.69
516.188	10533.69
516.447	10473.69
516.706	10409.69
516.965	10494.69
517.224	10502.69
517.483	10495.69
517.743	10460.69
518.002	10465.69
518.261	10561.69
518.52	10533.69
518.779	10438.69
519.038	10474.69
519.297	10511.69
519.556	10502.69
519.815	10381.69
520.074	10361.69
520.333	10535.69
520.592	10519.69
520.851	10390.69
521.11	10544.69
521.369	10627.69
521.628	10474.69
521.887	10421.69
522.145	10443.69
522.404	10505.69
522.663	10478.69
522.922	10388.69
523.181	10414.69
523.44	10557.69
523.699	10560.69
523.958	10371.69
524.217	10354.69
524.475	10459.69
524.734	10482.69
524.993	10468.69
525.252	10458.69
525.511	10529.69
525.769	10470.69
526.028	10389.69
526.287	10459.69
526.546	10502.69
526.805	10453.69
527.063	10356.69
527.322	10342.69
527.581	10481.69
