Data from HR4C21111__25__09-58-43-453.txt Node

Date: Mon Feb 22 09:58:43 IST 2021
User: Kapil
Spectrometer: HR4C2111
Trigger mode: 4
Integration Time (sec): 2.300000E0
Scans to average: 1
Electric dark correction enabled: true
Nonlinearity correction enabled: false
Boxcar width: 0
XAxis mode: Wavelengths
Number of Pixels in Spectrum: 3648
>>>>>Begin Spectral Data<<<<<
189.472	-458.23
189.745	-458.23
190.017	-458.23
190.289	-462.23
190.561	-305.23
190.834	-38.23
191.106	-134.23
191.378	4.77
191.65	5.77
191.923	-123.23
192.195	-104.23
192.467	142.77
192.739	108.77
193.011	-28.23
193.284	90.77
193.556	185.77
193.828	-3.23
194.1	-107.23
194.372	-120.23
194.644	57.77
194.916	69.77
195.188	-146.23
195.46	-80.23
195.732	51.77
196.004	-15.23
196.276	-106.23
196.548	-67.23
196.82	70.77
197.092	56.77
197.364	-129.23
197.636	-91.23
197.908	13.77
198.18	-49.23
198.452	-91.23
198.724	-41.23
198.996	59.77
199.268	80.77
199.54	-8.23
199.811	-122.23
200.083	85.77
200.355	16.77
200.627	-181.23
200.899	-64.23
201.171	66.77
201.442	-48.23
201.714	-174.23
201.986	-94.23
202.258	71.77
202.529	114.77
202.801	2.77
203.073	79.77
203.345	191.77
203.616	15.77
203.888	-139.23
204.16	-151.23
204.431	67.77
204.703	-5.23
204.974	-126.23
205.246	1.77
205.518	170.77
205.789	4.77
206.061	-133.23
206.332	-94.23
206.604	28.77
206.876	93.77
207.147	124.77
207.419	4.77
207.69	130.77
207.962	-29.23
208.233	-178.23
208.505	3.77
208.776	180.77
209.047	95.77
209.319	-120.23
209.59	-88.23
209.862	99.77
210.133	-33.23
210.404	-163.23
210.676	-120.23
210.947	76.77
211.219	69.77
211.49	-127.23
211.761	-44.23
212.033	32.77
212.304	-41.23
212.575	-183.23
212.846	-91.23
213.118	25.77
213.389	-56.23
213.66	-110.23
213.931	-48.23
214.203	13.77
214.474	-37.23
214.745	-117.23
215.016	144.77
215.287	431.77
215.559	68.77
215.83	-116.23
216.101	-63.23
216.372	2.77
216.643	81.77
216.914	0.77
217.185	-81.23
217.456	162.77
217.727	26.77
217.998	-159.23
218.269	-57.23
218.54	28.77
218.811	-11.23
219.082	-116.23
219.353	-96.23
219.624	-5.23
219.895	-25.23
220.166	-127.23
220.437	-116.23
220.708	101.77
220.979	-14.23
221.25	-151.23
221.521	-102.23
221.792	30.77
222.063	91.77
222.334	37.77
222.604	185.77
222.875	169.77
223.146	88.77
223.417	-164.23
223.688	-30.23
223.958	129.77
224.229	-59.23
224.5	-207.23
224.771	-99.23
225.041	56.77
225.312	48.77
225.583	-102.23
225.854	-73.23
226.124	71.77
226.395	-10.23
226.666	-127.23
226.936	-87.23
227.207	74.77
227.478	-42.23
227.748	-91.23
228.019	51.77
228.289	251.77
228.56	-35.23
228.831	-44.23
229.101	48.77
229.372	54.77
229.642	-27.23
229.913	-144.23
230.183	-124.23
230.454	-9.23
230.724	-5.23
230.995	-106.23
231.265	-65.23
231.536	77.77
231.806	51.77
232.076	-125.23
232.347	-123.23
232.617	27.77
232.888	15.77
233.158	-73.23
233.428	-111.23
233.699	-15.23
233.969	-66.23
234.239	-163.23
234.51	-88.23
234.78	48.77
235.05	-19.23
235.321	-119.23
235.591	-72.23
235.861	67.77
236.131	-54.23
236.402	-183.23
236.672	-73.23
236.942	50.77
237.212	48.77
237.483	-59.23
237.753	8.77
238.023	168.77
238.293	16.77
238.563	-78.23
238.833	-104.23
239.103	70.77
239.374	-11.23
239.644	-136.23
239.914	-26.23
240.184	133.77
240.454	-2.23
240.724	-173.23
240.994	-59.23
241.264	35.77
241.534	69.77
241.804	-7.23
242.074	-76.23
242.344	-37.23
242.614	-57.23
242.884	-161.23
243.154	-119.23
243.424	40.77
243.694	75.77
243.964	-91.23
244.234	-66.23
244.503	133.77
244.773	10.77
245.043	-210.23
245.313	-130.23
245.583	116.77
245.853	74.77
246.123	-173.23
246.392	-106.23
246.662	1.77
246.932	-22.23
247.202	-182.23
247.471	-65.23
247.741	260.77
248.011	95.77
248.281	-134.23
248.55	-87.23
248.82	66.77
249.09	-13.23
249.359	-95.23
249.629	-75.23
249.899	67.77
250.168	74.77
250.438	-20.23
250.708	-111.23
250.977	82.77
251.247	45.77
251.516	-124.23
251.786	-66.23
252.055	132.77
252.325	23.77
252.595	-95.23
252.864	-56.23
253.134	57.77
253.403	-20.23
253.673	-156.23
253.942	-101.23
254.212	36.77
254.481	-8.23
254.75	-151.23
255.02	-88.23
255.289	51.77
255.559	-10.23
255.828	-120.23
256.097	-33.23
256.367	35.77
256.636	-55.23
256.906	-142.23
257.175	-12.23
257.444	260.77
257.714	70.77
257.983	-78.23
258.252	-33.23
258.521	21.77
258.791	59.77
259.06	-90.23
259.329	-39.23
259.598	59.77
259.868	-12.23
260.137	-124.23
260.406	0.77
260.675	97.77
260.944	31.77
261.214	-128.23
261.483	-41.23
261.752	181.77
262.021	29.77
262.29	-142.23
262.559	-106.23
262.828	30.77
263.097	-52.23
263.366	-218.23
263.635	-92.23
263.905	145.77
264.174	25.77
264.443	-213.23
264.712	-120.23
264.981	51.77
265.25	-35.23
265.519	-154.23
265.788	-140.23
266.057	28.77
266.325	51.77
266.594	-56.23
266.863	-114.23
267.132	37.77
267.401	7.77
267.67	-199.23
267.939	-139.23
268.208	40.77
268.477	79.77
268.745	-114.23
269.014	-88.23
269.283	134.77
269.552	36.77
269.821	-121.23
270.089	-9.23
270.358	-6.23
270.627	-37.23
270.896	-150.23
271.164	-167.23
271.433	20.77
271.702	78.77
271.971	-138.23
272.239	-129.23
272.508	31.77
272.777	-25.23
273.045	-11.23
273.314	-19.23
273.583	118.77
273.851	-14.23
274.12	-151.23
274.388	-133.23
274.657	-14.23
274.926	-18.23
275.194	-153.23
275.463	-59.23
275.731	34.77
276	200.77
276.268	422.77
276.537	-79.23
276.805	31.77
277.074	31.77
277.342	-171.23
277.611	-108.23
277.879	107.77
278.148	40.77
278.416	-133.23
278.684	-119.23
278.953	-11.23
279.221	-36.23
279.49	-187.23
279.758	-99.23
280.026	0.77
280.295	8.77
280.563	-114.23
280.831	898.77
281.1	2177.77
281.368	212.77
281.636	-82.23
281.904	-107.23
282.173	-11.23
282.441	-61.23
282.709	-96.23
282.977	40.77
283.246	50.77
283.514	-33.23
283.782	-62.23
284.05	35.77
284.318	59.77
284.587	-27.23
284.855	-133.23
285.123	-50.23
285.391	69.77
285.659	42.77
285.927	-144.23
286.195	-70.23
286.463	49.77
286.732	-8.23
287	-121.23
287.268	-50.23
287.536	21.77
287.804	-41.23
288.072	-139.23
288.34	-91.23
288.608	71.77
288.876	-42.23
289.144	-122.23
289.412	-16.23
289.68	59.77
289.948	-12.23
290.215	-107.23
290.483	-104.23
290.751	91.77
291.019	82.77
291.287	-165.23
291.555	-98.23
291.823	45.77
292.091	-10.23
292.358	-62.23
292.626	-12.23
292.894	88.77
293.162	55.77
293.43	-101.23
293.697	-78.23
293.965	51.77
294.233	-18.23
294.501	-153.23
294.768	-54.23
295.036	79.77
295.304	32.77
295.572	-121.23
295.839	-108.23
296.107	99.77
296.375	1.77
296.642	-133.23
296.91	-113.23
297.178	63.77
297.445	175.77
297.713	94.77
297.98	-64.23
298.248	-41.23
298.516	-56.23
298.783	-121.23
299.051	-115.23
299.318	16.77
299.586	-17.23
299.853	-75.23
300.121	-89.23
300.388	35.77
300.656	-25.23
300.923	-154.23
301.191	-39.23
301.458	45.77
301.726	-24.23
301.993	-150.23
302.26	-93.23
302.528	47.77
302.795	-2.23
303.063	-78.23
303.33	-55.23
303.597	28.77
303.865	21.77
304.132	-124.23
304.399	-119.23
304.667	-13.23
304.934	8.77
305.201	-103.23
305.469	-20.23
305.736	47.77
306.003	41.77
306.27	-42.23
306.538	-94.23
306.805	4.77
307.072	-18.23
307.339	-88.23
307.606	-45.23
307.874	165.77
308.141	77.77
308.408	-122.23
308.675	-103.23
308.942	-33.23
309.209	-62.23
309.477	-122.23
309.744	-85.23
310.011	28.77
310.278	40.77
310.545	-34.23
310.812	-48.23
311.079	142.77
311.346	211.77
311.613	72.77
311.88	-33.23
312.147	-68.23
312.414	-28.23
312.681	-106.23
312.948	-23.23
313.215	108.77
313.482	96.77
313.749	-80.23
314.016	-183.23
314.283	-41.23
314.55	56.77
314.817	-113.23
315.083	-114.23
315.35	-79.23
315.617	-137.23
315.884	-144.23
316.151	60.77
316.418	159.77
316.684	-18.23
316.951	-194.23
317.218	-108.23
317.485	-8.23
317.752	-50.23
318.018	-97.23
318.285	-3.23
318.552	16.77
318.819	-45.23
319.085	-112.23
319.352	-37.23
319.619	53.77
319.885	-21.23
320.152	-192.23
320.419	-97.23
320.685	33.77
320.952	-22.23
321.219	-67.23
321.485	77.77
321.752	24.77
322.019	-34.23
322.285	54.77
322.552	-4.23
322.818	129.77
323.085	-4.23
323.351	-137.23
323.618	-22.23
323.884	52.77
324.151	-62.23
324.417	-33.23
324.684	-75.23
324.95	-50.23
325.217	-133.23
325.483	-173.23
325.75	-28.23
326.016	-0.23
326.283	-26.23
326.549	-193.23
326.815	-83.23
327.082	118.77
327.348	22.77
327.615	-106.23
327.881	-23.23
328.147	112.77
328.414	121.77
328.68	25.77
328.946	-35.23
329.212	27.77
329.479	1.77
329.745	-109.23
330.011	-100.23
330.278	5.77
330.544	-47.23
330.81	-46.23
331.076	-42.23
331.342	-31.23
331.609	-28.23
331.875	-79.23
332.141	-106.23
332.407	33.77
332.673	14.77
332.94	7.77
333.206	-35.23
333.472	52.77
333.738	74.77
334.004	-120.23
334.27	-16.23
334.536	15.77
334.802	-28.23
335.068	-84.23
335.334	7.77
335.6	45.77
335.866	-19.23
336.132	-156.23
336.398	-73.23
336.664	-3.23
336.93	-41.23
337.196	-85.23
337.462	-0.23
337.728	51.77
337.994	-24.23
338.26	-81.23
338.526	-28.23
338.792	-32.23
339.058	-32.23
339.324	-122.23
339.59	3.77
339.856	76.77
340.121	-43.23
340.387	-128.23
340.653	76.77
340.919	149.77
341.185	71.77
341.45	-47.23
341.716	39.77
341.982	129.77
342.248	-43.23
342.514	-69.23
342.779	18.77
343.045	41.77
343.311	4.77
343.576	-75.23
343.842	-13.23
344.108	147.77
344.374	36.77
344.639	-86.23
344.905	-72.23
345.171	60.77
345.436	-56.23
345.702	-92.23
345.967	70.77
346.233	107.77
346.499	43.77
346.764	-148.23
347.03	-49.23
347.295	-7.23
347.561	27.77
347.826	-26.23
348.092	-111.23
348.357	-5.23
348.623	4.77
348.888	-94.23
349.154	-57.23
349.419	84.77
349.685	37.77
349.95	-41.23
350.216	-15.23
350.481	71.77
350.747	0.77
351.012	-131.23
351.277	-67.23
351.543	71.77
351.808	29.77
352.074	-130.23
352.339	-85.23
352.604	92.77
352.87	55.77
353.135	-64.23
353.4	-9.23
353.666	38.77
353.931	26.77
354.196	-109.23
354.461	-81.23
354.727	99.77
354.992	83.77
355.257	-68.23
355.522	41.77
355.788	82.77
356.053	143.77
356.318	-15.23
356.583	-24.23
356.848	182.77
357.113	325.77
357.379	31.77
357.644	14.77
357.909	189.77
358.174	211.77
358.439	-39.23
358.704	34.77
358.969	164.77
359.234	174.77
359.499	8.77
359.765	88.77
360.03	216.77
360.295	202.77
360.56	32.77
360.825	109.77
361.09	318.77
361.355	130.77
361.62	108.77
361.885	132.77
362.15	117.77
362.415	139.77
362.679	88.77
362.944	240.77
363.209	257.77
363.474	285.77
363.739	237.77
364.004	132.77
364.269	188.77
364.534	257.77
364.799	221.77
365.063	225.77
365.328	332.77
365.593	321.77
365.858	181.77
366.123	199.77
366.387	353.77
366.652	284.77
366.917	173.77
367.182	234.77
367.447	383.77
367.711	353.77
367.976	310.77
368.241	379.77
368.505	453.77
368.77	347.77
369.035	339.77
369.299	400.77
369.564	461.77
369.829	377.77
370.093	347.77
370.358	351.77
370.623	459.77
370.887	470.77
371.152	345.77
371.416	430.77
371.681	468.77
371.946	395.77
372.21	387.77
372.475	520.77
372.739	552.77
373.004	526.77
373.268	502.77
373.533	558.77
373.797	610.77
374.062	620.77
374.326	465.77
374.591	560.77
374.855	674.77
375.12	613.77
375.384	459.77
375.648	560.77
375.913	714.77
376.177	743.77
376.442	615.77
376.706	650.77
376.97	782.77
377.235	756.77
377.499	752.77
377.763	743.77
378.028	726.77
378.292	810.77
378.556	746.77
378.821	693.77
379.085	804.77
379.349	748.77
379.614	713.77
379.878	851.77
380.142	1034.77
380.406	947.77
380.671	986.77
380.935	1140.77
381.199	1255.77
381.463	1113.77
381.727	1044.77
381.991	1029.77
382.256	1149.77
382.52	1097.77
382.784	1129.77
383.048	1303.77
383.312	1222.77
383.576	1201.77
383.84	1130.77
384.104	1197.77
384.369	1315.77
384.633	1226.77
384.897	1146.77
385.161	1294.77
385.425	1412.77
385.689	1370.77
385.953	1337.77
386.217	1357.77
386.481	1468.77
386.745	1495.77
387.009	1461.77
387.273	1449.77
387.537	1524.77
387.801	1568.77
388.064	1528.77
388.328	1661.77
388.592	1722.77
388.856	1670.77
389.12	1617.77
389.384	1731.77
389.648	1755.77
389.912	1853.77
390.176	1850.77
390.439	1967.77
390.703	1816.77
390.967	1820.77
391.231	1762.77
391.495	1830.77
391.758	1924.77
392.022	1937.77
392.286	1836.77
392.55	1890.77
392.813	2019.77
393.077	2085.77
393.341	2040.77
393.605	2139.77
393.868	2141.77
394.132	2142.77
394.396	2112.77
394.659	2278.77
394.923	2238.77
395.187	2183.77
395.45	2201.77
395.714	2300.77
395.978	2328.77
396.241	2340.77
396.505	2254.77
396.768	2355.77
397.032	2473.77
397.295	2474.77
397.559	2421.77
397.823	2401.77
398.086	2578.77
398.35	2550.77
398.613	2465.77
398.877	2565.77
399.14	2728.77
399.404	2799.77
399.667	2702.77
399.931	2655.77
400.194	2739.77
400.457	2743.77
400.721	2785.77
400.984	2856.77
401.248	2849.77
401.511	2809.77
401.775	2683.77
402.038	2789.77
402.301	3032.77
402.565	3014.77
402.828	2832.77
403.091	2936.77
403.355	3095.77
403.618	3061.77
403.881	3067.77
404.145	3108.77
404.408	3145.77
404.671	3112.77
404.934	3175.77
405.198	3249.77
405.461	3253.77
405.724	3290.77
405.987	3316.77
406.251	3397.77
406.514	3509.77
406.777	3392.77
407.04	3313.77
407.303	3301.77
407.567	3425.77
407.83	3499.77
408.093	3347.77
408.356	3509.77
408.619	3633.77
408.882	3688.77
409.145	3621.77
409.408	3586.77
409.672	3687.77
409.935	3606.77
410.198	3473.77
410.461	3554.77
410.724	3835.77
410.987	3774.77
411.25	3584.77
411.513	3743.77
411.776	3828.77
412.039	3662.77
412.302	3641.77
412.565	3702.77
412.828	3739.77
413.091	3744.77
413.354	3681.77
413.617	3681.77
413.879	3738.77
414.142	3749.77
414.405	3579.77
414.668	3646.77
414.931	3771.77
415.194	3717.77
415.457	3627.77
415.72	3686.77
415.983	3683.77
416.245	3721.77
416.508	3650.77
416.771	3576.77
417.034	3711.77
417.297	3731.77
417.559	3700.77
417.822	3672.77
418.085	3733.77
418.348	3746.77
418.61	3636.77
418.873	3637.77
419.136	3647.77
419.399	3626.77
419.661	3656.77
419.924	3606.77
420.187	3729.77
420.449	3766.77
420.712	3733.77
420.975	3699.77
421.237	3809.77
421.5	3858.77
421.762	3914.77
422.025	3944.77
422.288	3995.77
422.55	3805.77
422.813	3702.77
423.075	3810.77
423.338	3900.77
423.601	4005.77
423.863	3969.77
424.126	4012.77
424.388	4106.77
424.651	4090.77
424.913	4049.77
425.176	4031.77
425.438	4046.77
425.701	4066.77
425.963	3982.77
426.225	3980.77
426.488	4039.77
426.75	4068.77
427.013	4069.77
427.275	4127.77
427.538	4134.77
427.8	4181.77
428.062	4100.77
428.325	4115.77
428.587	4182.77
428.849	4171.77
429.112	4205.77
429.374	4179.77
429.636	4211.77
429.899	4318.77
430.161	4226.77
430.423	4272.77
430.686	4412.77
430.948	4435.77
431.21	4250.77
431.472	4237.77
431.735	4375.77
431.997	4380.77
432.259	4353.77
432.521	4214.77
432.783	4401.77
433.046	4373.77
433.308	4243.77
433.57	4267.77
433.832	4506.77
434.094	4327.77
434.356	4228.77
434.618	4389.77
434.881	4467.77
435.143	4551.77
435.405	4519.77
435.667	4442.77
435.929	4472.77
436.191	4489.77
436.453	4433.77
436.715	4524.77
436.977	4642.77
437.239	4764.77
437.501	4653.77
437.763	4584.77
438.025	4676.77
438.287	4617.77
438.549	4616.77
438.811	4585.77
439.073	4621.77
439.335	4657.77
439.597	4567.77
439.859	4551.77
440.121	4689.77
440.383	4651.77
440.645	4592.77
440.907	4615.77
441.168	4634.77
441.43	4671.77
441.692	4643.77
441.954	4712.77
442.216	4755.77
442.478	4738.77
442.74	4593.77
443.001	4713.77
443.263	4896.77
443.525	4718.77
443.787	4595.77
444.048	4576.77
444.31	4602.77
444.572	4670.77
444.834	4637.77
445.095	4676.77
445.357	4899.77
445.619	4686.77
445.881	4576.77
446.142	4656.77
446.404	4639.77
446.666	4676.77
446.927	4699.77
447.189	4844.77
447.451	4872.77
447.712	4667.77
447.974	4556.77
448.235	4564.77
448.497	4648.77
448.759	4639.77
449.02	4653.77
449.282	4570.77
449.543	4694.77
449.805	4748.77
450.066	4509.77
450.328	4638.77
450.59	4800.77
450.851	4644.77
451.113	4543.77
451.374	4499.77
451.636	4735.77
451.897	4833.77
452.158	4707.77
452.42	4782.77
452.681	4852.77
452.943	4631.77
453.204	4614.77
453.466	4636.77
453.727	4621.77
453.988	4686.77
454.25	4596.77
454.511	4658.77
454.773	4719.77
455.034	4861.77
455.295	4568.77
455.557	4702.77
455.818	4690.77
456.079	4702.77
456.341	4797.77
456.602	4872.77
456.863	4885.77
457.124	4752.77
457.386	4625.77
457.647	4629.77
457.908	4702.77
458.169	4860.77
458.431	4727.77
458.692	4805.77
458.953	4856.77
459.214	4810.77
459.476	4969.77
459.737	5092.77
459.998	5103.77
460.259	4927.77
460.52	4902.77
460.781	5044.77
461.043	5188.77
461.304	5085.77
461.565	4888.77
461.826	4980.77
462.087	5149.77
462.348	5301.77
462.609	5290.77
462.87	5221.77
463.131	5110.77
463.392	5343.77
463.653	5382.77
463.914	5386.77
464.175	5345.77
464.436	5365.77
464.697	5407.77
464.958	5288.77
465.219	5325.77
465.48	5425.77
465.741	5501.77
466.002	5390.77
466.263	5575.77
466.524	5592.77
466.785	5452.77
467.046	5532.77
467.307	5698.77
467.568	5775.77
467.829	5764.77
468.089	5762.77
468.35	5815.77
468.611	5728.77
468.872	5678.77
469.133	5922.77
469.394	6105.77
469.655	6160.77
469.915	6047.77
470.176	5940.77
470.437	6036.77
470.698	6232.77
470.958	6232.77
471.219	6227.77
471.48	6350.77
471.741	6510.77
472.001	6511.77
472.262	6541.77
472.523	6755.77
472.784	6819.77
473.044	6720.77
473.305	6754.77
473.566	6768.77
473.826	6892.77
474.087	6820.77
474.348	6906.77
474.608	7100.77
474.869	7066.77
475.129	7000.77
475.39	7097.77
475.651	7296.77
475.911	7451.77
476.172	7302.77
476.432	7496.77
476.693	7727.77
476.953	7581.77
477.214	7590.77
477.475	7651.77
477.735	7732.77
477.996	7823.77
478.256	7688.77
478.517	7823.77
478.777	8000.77
479.038	8159.77
479.298	8242.77
479.558	8229.77
479.819	8366.77
480.079	8398.77
480.34	8391.77
480.6	8377.77
480.861	8522.77
481.121	8519.77
481.381	8507.77
481.642	8622.77
481.902	8669.77
482.162	8688.77
482.423	8729.77
482.683	8842.77
482.943	8970.77
483.204	8959.77
483.464	8942.77
483.724	8980.77
483.985	9081.77
484.245	9187.77
484.505	9151.77
484.765	9159.77
485.026	9281.77
485.286	9417.77
485.546	9428.77
485.806	9484.77
486.067	9488.77
486.327	9420.77
486.587	9460.77
486.847	9556.77
487.107	9707.77
487.368	9696.77
487.628	9662.77
487.888	9767.77
488.148	9837.77
488.408	9749.77
488.668	9867.77
488.928	9888.77
489.188	9882.77
489.449	9937.77
489.709	9840.77
489.969	9873.77
490.229	10043.77
490.489	10084.77
490.749	9987.77
491.009	9889.77
491.269	9981.77
491.529	10024.77
491.789	10015.77
492.049	10191.77
492.309	10264.77
492.569	10115.77
492.829	10105.77
493.089	10111.77
493.349	10248.77
493.609	10188.77
493.869	10128.77
494.129	10259.77
494.389	10300.77
494.648	10211.77
494.908	10156.77
495.168	10246.77
495.428	10361.77
495.688	10287.77
495.948	10127.77
496.208	10142.77
496.467	10278.77
496.727	10329.77
496.987	10376.77
497.247	10359.77
497.507	10448.77
497.767	10473.77
498.026	10257.77
498.286	10335.77
498.546	10524.77
498.806	10417.77
499.065	10458.77
499.325	10337.77
499.585	10393.77
499.845	10402.77
500.104	10376.77
500.364	10452.77
500.624	10430.77
500.883	10362.77
501.143	10459.77
501.403	10567.77
501.662	10569.77
501.922	10570.77
502.182	10352.77
502.441	10348.77
502.701	10413.77
502.96	10517.77
503.22	10447.77
503.48	10374.77
503.739	10441.77
503.999	10434.77
504.258	10327.77
504.518	10359.77
504.777	10492.77
505.037	10531.77
505.296	10410.77
505.556	10422.77
505.815	10590.77
506.075	10667.77
506.334	10560.77
506.594	10345.77
506.853	10400.77
507.113	10400.77
507.372	10286.77
507.632	10424.77
507.891	10544.77
508.151	10533.77
508.41	10369.77
508.669	10391.77
508.929	10517.77
509.188	10471.77
509.447	10432.77
509.707	10406.77
509.966	10469.77
510.226	10527.77
510.485	10461.77
510.744	10421.77
511.004	10509.77
511.263	10415.77
511.522	10396.77
511.781	10384.77
512.041	10546.77
512.3	10514.77
512.559	10475.77
512.818	10527.77
513.078	10555.77
513.337	10610.77
513.596	10434.77
513.855	10465.77
514.115	10567.77
514.374	10525.77
514.633	10469.77
514.892	10464.77
515.151	10595.77
515.41	10630.77
515.67	10552.77
515.929	10499.77
516.188	10541.77
516.447	10517.77
516.706	10491.77
516.965	10571.77
517.224	10641.77
517.483	10619.77
517.743	10501.77
518.002	10595.77
518.261	10688.77
518.52	10679.77
518.779	10561.77
519.038	10545.77
519.297	10606.77
519.556	10647.77
519.815	10519.77
520.074	10511.77
520.333	10664.77
520.592	10660.77
520.851	10559.77
521.11	10694.77
521.369	10744.77
521.628	10623.77
521.887	10543.77
522.145	10557.77
522.404	10584.77
522.663	10664.77
522.922	10552.77
523.181	10567.77
523.44	10695.77
523.699	10702.77
523.958	10496.77
524.217	10438.77
524.475	10536.77
524.734	10568.77
524.993	10537.77
525.252	10526.77
525.511	10593.77
525.769	10577.77
526.028	10475.77
526.287	10629.77
526.546	10604.77
526.805	10556.77
527.063	10447.77
527.322	10500.77
527.581	10615.77
