Data from HR4C21111__32__09-59-54-745.txt Node

Date: Mon Feb 22 09:59:54 IST 2021
User: Kapil
Spectrometer: HR4C2111
Trigger mode: 4
Integration Time (sec): 2.300000E0
Scans to average: 1
Electric dark correction enabled: true
Nonlinearity correction enabled: false
Boxcar width: 0
XAxis mode: Wavelengths
Number of Pixels in Spectrum: 3648
>>>>>Begin Spectral Data<<<<<
189.472	-456.92
189.745	-456.92
190.017	-456.92
190.289	-473.92
190.561	-297.92
190.834	-22.92
191.106	-101.92
191.378	20.08
191.65	5.08
191.923	-143.92
192.195	-100.92
192.467	137.08
192.739	110.08
193.011	-35.92
193.284	78.08
193.556	170.08
193.828	-28.92
194.1	-85.92
194.372	-125.92
194.644	33.08
194.916	53.08
195.188	-154.92
195.46	-81.92
195.732	31.08
196.004	-15.92
196.276	-96.92
196.548	-61.92
196.82	62.08
197.092	55.08
197.364	-136.92
197.636	-99.92
197.908	18.08
198.18	-56.92
198.452	-97.92
198.724	-61.92
198.996	53.08
199.268	67.08
199.54	-32.92
199.811	-117.92
200.083	87.08
200.355	17.08
200.627	-194.92
200.899	-79.92
201.171	54.08
201.442	-53.92
201.714	-181.92
201.986	-94.92
202.258	61.08
202.529	126.08
202.801	5.08
203.073	65.08
203.345	182.08
203.616	13.08
203.888	-135.92
204.16	-148.92
204.431	78.08
204.703	-1.92
204.974	-134.92
205.246	-6.92
205.518	164.08
205.789	-6.92
206.061	-129.92
206.332	-111.92
206.604	21.08
206.876	99.08
207.147	125.08
207.419	3.08
207.69	112.08
207.962	-32.92
208.233	-171.92
208.505	21.08
208.776	164.08
209.047	86.08
209.319	-129.92
209.59	-85.92
209.862	108.08
210.133	-39.92
210.404	-161.92
210.676	-111.92
210.947	73.08
211.219	65.08
211.49	-115.92
211.761	-37.92
212.033	35.08
212.304	-34.92
212.575	-176.92
212.846	-70.92
213.118	33.08
213.389	-60.92
213.66	-112.92
213.931	-39.92
214.203	21.08
214.474	-40.92
214.745	-117.92
215.016	148.08
215.287	434.08
215.559	55.08
215.83	-134.92
216.101	-73.92
216.372	-4.92
216.643	73.08
216.914	21.08
217.185	-75.92
217.456	150.08
217.727	17.08
217.998	-162.92
218.269	-58.92
218.54	25.08
218.811	-27.92
219.082	-122.92
219.353	-70.92
219.624	-15.92
219.895	-27.92
220.166	-133.92
220.437	-104.92
220.708	97.08
220.979	-2.92
221.25	-137.92
221.521	-94.92
221.792	30.08
222.063	77.08
222.334	52.08
222.604	202.08
222.875	165.08
223.146	100.08
223.417	-168.92
223.688	-29.92
223.958	123.08
224.229	-43.92
224.5	-190.92
224.771	-95.92
225.041	53.08
225.312	37.08
225.583	-109.92
225.854	-59.92
226.124	81.08
226.395	-12.92
226.666	-124.92
226.936	-105.92
227.207	63.08
227.478	-44.92
227.748	-101.92
228.019	41.08
228.289	244.08
228.56	-32.92
228.831	-54.92
229.101	49.08
229.372	78.08
229.642	-25.92
229.913	-160.92
230.183	-128.92
230.454	-10.92
230.724	-0.92
230.995	-104.92
231.265	-58.92
231.536	78.08
231.806	46.08
232.076	-111.92
232.347	-121.92
232.617	29.08
232.888	30.08
233.158	-64.92
233.428	-110.92
233.699	-4.92
233.969	-54.92
234.239	-170.92
234.51	-88.92
234.78	50.08
235.05	-4.92
235.321	-101.92
235.591	-66.92
235.861	57.08
236.131	-54.92
236.402	-190.92
236.672	-97.92
236.942	39.08
237.212	42.08
237.483	-64.92
237.753	13.08
238.023	183.08
238.293	15.08
238.563	-93.92
238.833	-118.92
239.103	56.08
239.374	-22.92
239.644	-148.92
239.914	-28.92
240.184	146.08
240.454	19.08
240.724	-168.92
240.994	-78.92
241.264	22.08
241.534	52.08
241.804	-25.92
242.074	-88.92
242.344	-30.92
242.614	-61.92
242.884	-178.92
243.154	-126.92
243.424	36.08
243.694	67.08
243.964	-88.92
244.234	-62.92
244.503	136.08
244.773	12.08
245.043	-223.92
245.313	-133.92
245.583	127.08
245.853	84.08
246.123	-177.92
246.392	-109.92
246.662	8.08
246.932	-17.92
247.202	-173.92
247.471	-60.92
247.741	243.08
248.011	84.08
248.281	-143.92
248.55	-91.92
248.82	62.08
249.09	-3.92
249.359	-96.92
249.629	-81.92
249.899	47.08
250.168	45.08
250.438	-41.92
250.708	-114.92
250.977	85.08
251.247	61.08
251.516	-107.92
251.786	-42.92
252.055	123.08
252.325	8.08
252.595	-98.92
252.864	-57.92
253.134	65.08
253.403	-21.92
253.673	-172.92
253.942	-110.92
254.212	48.08
254.481	-5.92
254.75	-141.92
255.02	-75.92
255.289	80.08
255.559	-7.92
255.828	-119.92
256.097	-35.92
256.367	18.08
256.636	-57.92
256.906	-133.92
257.175	-28.92
257.444	231.08
257.714	46.08
257.983	-71.92
258.252	-41.92
258.521	8.08
258.791	50.08
259.06	-110.92
259.329	-59.92
259.598	59.08
259.868	1.08
260.137	-119.92
260.406	-4.92
260.675	69.08
260.944	34.08
261.214	-118.92
261.483	-44.92
261.752	189.08
262.021	12.08
262.29	-177.92
262.559	-127.92
262.828	-0.92
263.097	-48.92
263.366	-194.92
263.635	-90.92
263.905	131.08
264.174	19.08
264.443	-201.92
264.712	-102.92
264.981	47.08
265.25	-44.92
265.519	-140.92
265.788	-143.92
266.057	29.08
266.325	56.08
266.594	-50.92
266.863	-112.92
267.132	22.08
267.401	2.08
267.67	-196.92
267.939	-146.92
268.208	22.08
268.477	78.08
268.745	-120.92
269.014	-100.92
269.283	132.08
269.552	45.08
269.821	-107.92
270.089	-2.92
270.358	-1.92
270.627	-8.92
270.896	-129.92
271.164	-154.92
271.433	22.08
271.702	84.08
271.971	-151.92
272.239	-135.92
272.508	27.08
272.777	-31.92
273.045	-18.92
273.314	-32.92
273.583	108.08
273.851	-5.92
274.12	-152.92
274.388	-124.92
274.657	-9.92
274.926	-1.92
275.194	-161.92
275.463	-62.92
275.731	21.08
276	186.08
276.268	398.08
276.537	-85.92
276.805	33.08
277.074	38.08
277.342	-147.92
277.611	-91.92
277.879	109.08
278.148	44.08
278.416	-145.92
278.684	-116.92
278.953	-10.92
279.221	-26.92
279.49	-192.92
279.758	-110.92
280.026	2.08
280.295	2.08
280.563	-120.92
280.831	895.08
281.1	2180.08
281.368	202.08
281.636	-91.92
281.904	-118.92
282.173	-11.92
282.441	-55.92
282.709	-95.92
282.977	35.08
283.246	61.08
283.514	-34.92
283.782	-69.92
284.05	23.08
284.318	77.08
284.587	-3.92
284.855	-93.92
285.123	-35.92
285.391	72.08
285.659	42.08
285.927	-152.92
286.195	-52.92
286.463	58.08
286.732	-13.92
287	-125.92
287.268	-54.92
287.536	40.08
287.804	-29.92
288.072	-137.92
288.34	-84.92
288.608	75.08
288.876	-32.92
289.144	-121.92
289.412	-0.92
289.68	65.08
289.948	-13.92
290.215	-124.92
290.483	-109.92
290.751	95.08
291.019	95.08
291.287	-172.92
291.555	-121.92
291.823	22.08
292.091	-16.92
292.358	-60.92
292.626	-15.92
292.894	91.08
293.162	57.08
293.43	-104.92
293.697	-82.92
293.965	52.08
294.233	-32.92
294.501	-168.92
294.768	-58.92
295.036	84.08
295.304	38.08
295.572	-126.92
295.839	-109.92
296.107	98.08
296.375	-0.92
296.642	-148.92
296.91	-121.92
297.178	52.08
297.445	169.08
297.713	91.08
297.98	-88.92
298.248	-47.92
298.516	-52.92
298.783	-113.92
299.051	-121.92
299.318	16.08
299.586	-11.92
299.853	-89.92
300.121	-84.92
300.388	52.08
300.656	-5.92
300.923	-145.92
301.191	-58.92
301.458	52.08
301.726	-4.92
301.993	-134.92
302.26	-87.92
302.528	42.08
302.795	-8.92
303.063	-69.92
303.33	-48.92
303.597	38.08
303.865	10.08
304.132	-135.92
304.399	-122.92
304.667	-23.92
304.934	6.08
305.201	-125.92
305.469	-20.92
305.736	66.08
306.003	41.08
306.27	-61.92
306.538	-95.92
306.805	-7.92
307.072	-25.92
307.339	-73.92
307.606	-59.92
307.874	143.08
308.141	62.08
308.408	-119.92
308.675	-108.92
308.942	-49.92
309.209	-70.92
309.477	-125.92
309.744	-107.92
310.011	20.08
310.278	36.08
310.545	-19.92
310.812	-55.92
311.079	141.08
311.346	205.08
311.613	62.08
311.88	-29.92
312.147	-70.92
312.414	-46.92
312.681	-116.92
312.948	-35.92
313.215	126.08
313.482	89.08
313.749	-108.92
314.016	-198.92
314.283	-38.92
314.55	59.08
314.817	-96.92
315.083	-130.92
315.35	-84.92
315.617	-138.92
315.884	-154.92
316.151	59.08
316.418	154.08
316.684	-42.92
316.951	-183.92
317.218	-109.92
317.485	4.08
317.752	-60.92
318.018	-122.92
318.285	4.08
318.552	33.08
318.819	-70.92
319.085	-126.92
319.352	-25.92
319.619	44.08
319.885	-38.92
320.152	-191.92
320.419	-114.92
320.685	38.08
320.952	-21.92
321.219	-61.92
321.485	78.08
321.752	24.08
322.019	-38.92
322.285	45.08
322.552	-20.92
322.818	120.08
323.085	-24.92
323.351	-130.92
323.618	-20.92
323.884	35.08
324.151	-63.92
324.417	-29.92
324.684	-75.92
324.95	-40.92
325.217	-135.92
325.483	-178.92
325.75	-34.92
326.016	21.08
326.283	-7.92
326.549	-180.92
326.815	-66.92
327.082	103.08
327.348	16.08
327.615	-90.92
327.881	-17.92
328.147	132.08
328.414	147.08
328.68	35.08
328.946	-33.92
329.212	33.08
329.479	13.08
329.745	-111.92
330.011	-102.92
330.278	24.08
330.544	-29.92
330.81	-21.92
331.076	-18.92
331.342	-28.92
331.609	-28.92
331.875	-75.92
332.141	-74.92
332.407	49.08
332.673	3.08
332.94	-11.92
333.206	-34.92
333.472	66.08
333.738	82.08
334.004	-110.92
334.27	-14.92
334.536	13.08
334.802	-43.92
335.068	-94.92
335.334	-0.92
335.6	37.08
335.866	-16.92
336.132	-148.92
336.398	-68.92
336.664	-17.92
336.93	-43.92
337.196	-79.92
337.462	-19.92
337.728	32.08
337.994	-19.92
338.26	-93.92
338.526	-27.92
338.792	-46.92
339.058	-41.92
339.324	-138.92
339.59	-11.92
339.856	61.08
340.121	-56.92
340.387	-107.92
340.653	94.08
340.919	152.08
341.185	60.08
341.45	-75.92
341.716	22.08
341.982	117.08
342.248	-40.92
342.514	-72.92
342.779	12.08
343.045	46.08
343.311	-6.92
343.576	-86.92
343.842	-35.92
344.108	140.08
344.374	40.08
344.639	-104.92
344.905	-80.92
345.171	85.08
345.436	-32.92
345.702	-78.92
345.967	79.08
346.233	109.08
346.499	31.08
346.764	-155.92
347.03	-45.92
347.295	-14.92
347.561	31.08
347.826	-20.92
348.092	-116.92
348.357	-10.92
348.623	-9.92
348.888	-98.92
349.154	-49.92
349.419	84.08
349.685	55.08
349.95	-40.92
350.216	-1.92
350.481	86.08
350.747	-7.92
351.012	-135.92
351.277	-58.92
351.543	62.08
351.808	3.08
352.074	-134.92
352.339	-87.92
352.604	83.08
352.87	44.08
353.135	-78.92
353.4	-9.92
353.666	39.08
353.931	35.08
354.196	-82.92
354.461	-77.92
354.727	75.08
354.992	63.08
355.257	-72.92
355.522	32.08
355.788	75.08
356.053	145.08
356.318	-10.92
356.583	-33.92
356.848	182.08
357.113	321.08
357.379	42.08
357.644	-9.92
357.909	197.08
358.174	227.08
358.439	-24.92
358.704	46.08
358.969	157.08
359.234	174.08
359.499	5.08
359.765	65.08
360.03	187.08
360.295	201.08
360.56	28.08
360.825	91.08
361.09	300.08
361.355	124.08
361.62	97.08
361.885	129.08
362.15	118.08
362.415	135.08
362.679	100.08
362.944	242.08
363.209	265.08
363.474	274.08
363.739	211.08
364.004	122.08
364.269	195.08
364.534	248.08
364.799	221.08
365.063	221.08
365.328	324.08
365.593	322.08
365.858	194.08
366.123	201.08
366.387	345.08
366.652	277.08
366.917	167.08
367.182	225.08
367.447	398.08
367.711	351.08
367.976	283.08
368.241	354.08
368.505	424.08
368.77	355.08
369.035	341.08
369.299	397.08
369.564	449.08
369.829	375.08
370.093	347.08
370.358	361.08
370.623	460.08
370.887	459.08
371.152	338.08
371.416	416.08
371.681	477.08
371.946	391.08
372.21	374.08
372.475	510.08
372.739	538.08
373.004	491.08
373.268	477.08
373.533	550.08
373.797	644.08
374.062	628.08
374.326	463.08
374.591	552.08
374.855	666.08
375.12	602.08
375.384	443.08
375.648	543.08
375.913	699.08
376.177	734.08
376.442	627.08
376.706	628.08
376.97	801.08
377.235	774.08
377.499	727.08
377.763	747.08
378.028	744.08
378.292	797.08
378.556	730.08
378.821	697.08
379.085	782.08
379.349	759.08
379.614	721.08
379.878	859.08
380.142	1042.08
380.406	948.08
380.671	950.08
380.935	1125.08
381.199	1211.08
381.463	1102.08
381.727	1061.08
381.991	1051.08
382.256	1131.08
382.52	1083.08
382.784	1113.08
383.048	1247.08
383.312	1189.08
383.576	1171.08
383.84	1094.08
384.104	1144.08
384.369	1263.08
384.633	1198.08
384.897	1141.08
385.161	1289.08
385.425	1425.08
385.689	1343.08
385.953	1302.08
386.217	1324.08
386.481	1458.08
386.745	1483.08
387.009	1460.08
387.273	1433.08
387.537	1490.08
387.801	1567.08
388.064	1512.08
388.328	1597.08
388.592	1666.08
388.856	1673.08
389.12	1632.08
389.384	1690.08
389.648	1745.08
389.912	1815.08
390.176	1852.08
390.439	1979.08
390.703	1836.08
390.967	1811.08
391.231	1748.08
391.495	1808.08
391.758	1917.08
392.022	1980.08
392.286	1857.08
392.55	1885.08
392.813	2005.08
393.077	2055.08
393.341	2015.08
393.605	2152.08
393.868	2108.08
394.132	2108.08
394.396	2071.08
394.659	2252.08
394.923	2200.08
395.187	2099.08
395.45	2149.08
395.714	2219.08
395.978	2269.08
396.241	2262.08
396.505	2236.08
396.768	2353.08
397.032	2422.08
397.295	2418.08
397.559	2361.08
397.823	2329.08
398.086	2496.08
398.35	2482.08
398.613	2412.08
398.877	2513.08
399.14	2654.08
399.404	2721.08
399.667	2628.08
399.931	2626.08
400.194	2697.08
400.457	2707.08
400.721	2718.08
400.984	2836.08
401.248	2814.08
401.511	2786.08
401.775	2649.08
402.038	2756.08
402.301	2963.08
402.565	2939.08
402.828	2789.08
403.091	2861.08
403.355	3031.08
403.618	3002.08
403.881	2986.08
404.145	3031.08
404.408	3071.08
404.671	3040.08
404.934	3154.08
405.198	3253.08
405.461	3266.08
405.724	3290.08
405.987	3247.08
406.251	3325.08
406.514	3437.08
406.777	3285.08
407.04	3208.08
407.303	3197.08
407.567	3321.08
407.83	3444.08
408.093	3341.08
408.356	3488.08
408.619	3594.08
408.882	3646.08
409.145	3518.08
409.408	3486.08
409.672	3614.08
409.935	3512.08
410.198	3430.08
410.461	3501.08
410.724	3769.08
410.987	3716.08
411.25	3506.08
411.513	3635.08
411.776	3682.08
412.039	3556.08
412.302	3573.08
412.565	3638.08
412.828	3683.08
413.091	3700.08
413.354	3594.08
413.617	3607.08
413.879	3691.08
414.142	3673.08
414.405	3473.08
414.668	3518.08
414.931	3642.08
415.194	3573.08
415.457	3486.08
415.72	3581.08
415.983	3658.08
416.245	3700.08
416.508	3595.08
416.771	3484.08
417.034	3646.08
417.297	3643.08
417.559	3560.08
417.822	3561.08
418.085	3674.08
418.348	3671.08
418.61	3557.08
418.873	3545.08
419.136	3575.08
419.399	3595.08
419.661	3628.08
419.924	3568.08
420.187	3691.08
420.449	3684.08
420.712	3621.08
420.975	3625.08
421.237	3709.08
421.5	3742.08
421.762	3762.08
422.025	3749.08
422.288	3867.08
422.55	3691.08
422.813	3601.08
423.075	3745.08
423.338	3848.08
423.601	3910.08
423.863	3885.08
424.126	3911.08
424.388	4005.08
424.651	3970.08
424.913	3942.08
425.176	3916.08
425.438	3990.08
425.701	4001.08
425.963	3902.08
426.225	3902.08
426.488	3961.08
426.75	3963.08
427.013	3974.08
427.275	4062.08
427.538	4042.08
427.8	4068.08
428.062	3977.08
428.325	4046.08
428.587	4104.08
428.849	4070.08
429.112	4171.08
429.374	4101.08
429.636	4132.08
429.899	4253.08
430.161	4146.08
430.423	4161.08
430.686	4346.08
430.948	4367.08
431.21	4167.08
431.472	4105.08
431.735	4279.08
431.997	4297.08
432.259	4239.08
432.521	4107.08
432.783	4285.08
433.046	4267.08
433.308	4147.08
433.57	4227.08
433.832	4491.08
434.094	4257.08
434.356	4168.08
434.618	4290.08
434.881	4330.08
435.143	4428.08
435.405	4407.08
435.667	4344.08
435.929	4374.08
436.191	4378.08
436.453	4304.08
436.715	4430.08
436.977	4564.08
437.239	4639.08
437.501	4542.08
437.763	4534.08
438.025	4630.08
438.287	4541.08
438.549	4519.08
438.811	4483.08
439.073	4486.08
439.335	4510.08
439.597	4450.08
439.859	4433.08
440.121	4573.08
440.383	4494.08
440.645	4474.08
440.907	4508.08
441.168	4521.08
441.43	4521.08
441.692	4546.08
441.954	4606.08
442.216	4651.08
442.478	4580.08
442.74	4458.08
443.001	4605.08
443.263	4755.08
443.525	4606.08
443.787	4490.08
444.048	4466.08
444.31	4532.08
444.572	4601.08
444.834	4562.08
445.095	4579.08
445.357	4719.08
445.619	4515.08
445.881	4421.08
446.142	4511.08
446.404	4539.08
446.666	4555.08
446.927	4530.08
447.189	4694.08
447.451	4749.08
447.712	4618.08
447.974	4447.08
448.235	4465.08
448.497	4523.08
448.759	4494.08
449.02	4554.08
449.282	4425.08
449.543	4565.08
449.805	4638.08
450.066	4385.08
450.328	4515.08
450.59	4776.08
450.851	4555.08
451.113	4354.08
451.374	4368.08
451.636	4646.08
451.897	4685.08
452.158	4551.08
452.42	4618.08
452.681	4682.08
452.943	4487.08
453.204	4517.08
453.466	4534.08
453.727	4481.08
453.988	4522.08
454.25	4442.08
454.511	4499.08
454.773	4571.08
455.034	4723.08
455.295	4477.08
455.557	4602.08
455.818	4646.08
456.079	4597.08
456.341	4696.08
456.602	4768.08
456.863	4815.08
457.124	4633.08
457.386	4505.08
457.647	4509.08
457.908	4588.08
458.169	4734.08
458.431	4559.08
458.692	4627.08
458.953	4683.08
459.214	4693.08
459.476	4826.08
459.737	4972.08
459.998	4959.08
460.259	4843.08
460.52	4793.08
460.781	4950.08
461.043	5080.08
461.304	4942.08
461.565	4772.08
461.826	4887.08
462.087	5024.08
462.348	5165.08
462.609	5120.08
462.87	5083.08
463.131	5014.08
463.392	5241.08
463.653	5281.08
463.914	5214.08
464.175	5176.08
464.436	5288.08
464.697	5353.08
464.958	5180.08
465.219	5216.08
465.48	5317.08
465.741	5327.08
466.002	5181.08
466.263	5430.08
466.524	5474.08
466.785	5362.08
467.046	5454.08
467.307	5616.08
467.568	5657.08
467.829	5631.08
468.089	5625.08
468.35	5669.08
468.611	5623.08
468.872	5546.08
469.133	5788.08
469.394	5972.08
469.655	6069.08
469.915	5949.08
470.176	5806.08
470.437	5837.08
470.698	6045.08
470.958	6045.08
471.219	6077.08
471.48	6261.08
471.741	6376.08
472.001	6340.08
472.262	6279.08
472.523	6557.08
472.784	6676.08
473.044	6559.08
473.305	6558.08
473.566	6563.08
473.826	6686.08
474.087	6678.08
474.348	6776.08
474.608	6949.08
474.869	6921.08
475.129	6798.08
475.39	6886.08
475.651	7077.08
475.911	7250.08
476.172	7074.08
476.432	7189.08
476.693	7482.08
476.953	7385.08
477.214	7432.08
477.475	7471.08
477.735	7501.08
477.996	7661.08
478.256	7522.08
478.517	7627.08
478.777	7718.08
479.038	7921.08
479.298	8007.08
479.558	7987.08
479.819	8146.08
480.079	8185.08
480.34	8215.08
480.6	8175.08
480.861	8297.08
481.121	8287.08
481.381	8330.08
481.642	8409.08
481.902	8447.08
482.162	8453.08
482.423	8454.08
482.683	8608.08
482.943	8792.08
483.204	8738.08
483.464	8652.08
483.724	8686.08
483.985	8804.08
484.245	8894.08
484.505	8867.08
484.765	9037.08
485.026	9103.08
485.286	9197.08
485.546	9147.08
485.806	9187.08
486.067	9202.08
486.327	9181.08
486.587	9211.08
486.847	9310.08
487.107	9401.08
487.368	9455.08
487.628	9432.08
487.888	9506.08
488.148	9622.08
488.408	9481.08
488.668	9578.08
488.928	9585.08
489.188	9611.08
489.449	9632.08
489.709	9587.08
489.969	9667.08
490.229	9790.08
490.489	9802.08
490.749	9737.08
491.009	9686.08
491.269	9758.08
491.529	9778.08
491.789	9765.08
492.049	9884.08
492.309	9993.08
492.569	9879.08
492.829	9901.08
493.089	9904.08
493.349	10054.08
493.609	9984.08
493.869	9876.08
494.129	9992.08
494.389	10052.08
494.648	9906.08
494.908	9875.08
495.168	10026.08
495.428	10141.08
495.688	10036.08
495.948	9898.08
496.208	9924.08
496.467	9982.08
496.727	10005.08
496.987	10049.08
497.247	10058.08
497.507	10126.08
497.767	10127.08
498.026	9942.08
498.286	10085.08
498.546	10242.08
498.806	10114.08
499.065	10177.08
499.325	10091.08
499.585	10140.08
499.845	10158.08
500.104	10130.08
500.364	10194.08
500.624	10158.08
500.883	10126.08
501.143	10193.08
501.403	10243.08
501.662	10324.08
501.922	10291.08
502.182	10083.08
502.441	10127.08
502.701	10169.08
502.96	10284.08
503.22	10223.08
503.48	10151.08
503.739	10238.08
503.999	10189.08
504.258	10113.08
504.518	10203.08
504.777	10258.08
505.037	10207.08
505.296	10101.08
505.556	10137.08
505.815	10334.08
506.075	10404.08
506.334	10277.08
506.594	10136.08
506.853	10255.08
507.113	10236.08
507.372	10028.08
507.632	10146.08
507.891	10232.08
508.151	10244.08
508.41	10144.08
508.669	10190.08
508.929	10256.08
509.188	10126.08
509.447	10101.08
509.707	10045.08
509.966	10125.08
510.226	10196.08
510.485	10220.08
510.744	10237.08
511.004	10270.08
511.263	10140.08
511.522	10107.08
511.781	10138.08
512.041	10259.08
512.3	10175.08
512.559	10199.08
512.818	10264.08
513.078	10275.08
513.337	10279.08
513.596	10138.08
513.855	10127.08
514.115	10311.08
514.374	10312.08
514.633	10174.08
514.892	10120.08
515.151	10286.08
515.41	10369.08
515.67	10282.08
515.929	10248.08
516.188	10384.08
516.447	10352.08
516.706	10237.08
516.965	10278.08
517.224	10343.08
517.483	10384.08
517.743	10282.08
518.002	10315.08
518.261	10384.08
518.52	10388.08
518.779	10269.08
519.038	10248.08
519.297	10315.08
519.556	10306.08
519.815	10261.08
520.074	10244.08
520.333	10406.08
520.592	10439.08
520.851	10286.08
521.11	10326.08
521.369	10408.08
521.628	10243.08
521.887	10232.08
522.145	10317.08
522.404	10354.08
522.663	10332.08
522.922	10233.08
523.181	10233.08
523.44	10359.08
523.699	10391.08
523.958	10228.08
524.217	10244.08
524.475	10275.08
524.734	10292.08
524.993	10275.08
525.252	10261.08
525.511	10288.08
525.769	10257.08
526.028	10231.08
526.287	10265.08
526.546	10352.08
526.805	10300.08
527.063	10201.08
527.322	10176.08
527.581	10279.08
527.839	10275.08
