Data from HR4C21111__33__10-00-10-843.txt Node

Date: Mon Feb 22 10:00:10 IST 2021
User: Kapil
Spectrometer: HR4C2111
Trigger mode: 4
Integration Time (sec): 2.300000E0
Scans to average: 1
Electric dark correction enabled: true
Nonlinearity correction enabled: false
Boxcar width: 0
XAxis mode: Wavelengths
Number of Pixels in Spectrum: 3648
>>>>>Begin Spectral Data<<<<<
189.472	-448.85
189.745	-448.85
190.017	-448.85
190.289	-454.85
190.561	-302.85
190.834	-19.85
191.106	-116.85
191.378	12.15
191.65	5.15
191.923	-149.85
192.195	-94.85
192.467	129.15
192.739	103.15
193.011	-19.85
193.284	98.15
193.556	175.15
193.828	-13.85
194.1	-107.85
194.372	-116.85
194.644	55.15
194.916	59.15
195.188	-154.85
195.46	-75.85
195.732	48.15
196.004	-18.85
196.276	-114.85
196.548	-50.85
196.82	79.15
197.092	67.15
197.364	-136.85
197.636	-95.85
197.908	26.15
198.18	-33.85
198.452	-82.85
198.724	-39.85
198.996	59.15
199.268	87.15
199.54	-16.85
199.811	-112.85
200.083	97.15
200.355	12.15
200.627	-204.85
200.899	-68.85
201.171	35.15
201.442	-68.85
201.714	-185.85
201.986	-91.85
202.258	62.15
202.529	123.15
202.801	-4.85
203.073	88.15
203.345	208.15
203.616	6.15
203.888	-149.85
204.16	-153.85
204.431	83.15
204.703	-1.85
204.974	-149.85
205.246	-5.85
205.518	180.15
205.789	4.15
206.061	-120.85
206.332	-92.85
206.604	10.15
206.876	77.15
207.147	141.15
207.419	31.15
207.69	126.15
207.962	-37.85
208.233	-178.85
208.505	11.15
208.776	186.15
209.047	80.15
209.319	-127.85
209.59	-96.85
209.862	100.15
210.133	-36.85
210.404	-167.85
210.676	-113.85
210.947	80.15
211.219	67.15
211.49	-122.85
211.761	-52.85
212.033	29.15
212.304	-46.85
212.575	-188.85
212.846	-86.85
213.118	29.15
213.389	-47.85
213.66	-111.85
213.931	-48.85
214.203	20.15
214.474	-40.85
214.745	-134.85
215.016	130.15
215.287	439.15
215.559	71.15
215.83	-119.85
216.101	-64.85
216.372	9.15
216.643	66.15
216.914	14.15
217.185	-84.85
217.456	152.15
217.727	23.15
217.998	-162.85
218.269	-53.85
218.54	40.15
218.811	-15.85
219.082	-100.85
219.353	-70.85
219.624	-13.85
219.895	-24.85
220.166	-129.85
220.437	-120.85
220.708	99.15
220.979	-6.85
221.25	-128.85
221.521	-85.85
221.792	23.15
222.063	73.15
222.334	30.15
222.604	171.15
222.875	166.15
223.146	96.15
223.417	-159.85
223.688	-24.85
223.958	118.15
224.229	-62.85
224.5	-181.85
224.771	-80.85
225.041	61.15
225.312	44.15
225.583	-105.85
225.854	-57.85
226.124	93.15
226.395	-17.85
226.666	-117.85
226.936	-100.85
227.207	56.15
227.478	-56.85
227.748	-85.85
228.019	63.15
228.289	265.15
228.56	-33.85
228.831	-45.85
229.101	44.15
229.372	76.15
229.642	-6.85
229.913	-152.85
230.183	-131.85
230.454	-0.85
230.724	9.15
230.995	-96.85
231.265	-63.85
231.536	73.15
231.806	63.15
232.076	-104.85
232.347	-115.85
232.617	46.15
232.888	23.15
233.158	-60.85
233.428	-110.85
233.699	-15.85
233.969	-47.85
234.239	-162.85
234.51	-81.85
234.78	48.15
235.05	-4.85
235.321	-123.85
235.591	-69.85
235.861	69.15
236.131	-53.85
236.402	-201.85
236.672	-93.85
236.942	41.15
237.212	46.15
237.483	-51.85
237.753	19.15
238.023	168.15
238.293	16.15
238.563	-84.85
238.833	-102.85
239.103	72.15
239.374	-15.85
239.644	-128.85
239.914	-14.85
240.184	139.15
240.454	-4.85
240.724	-160.85
240.994	-62.85
241.264	33.15
241.534	62.15
241.804	-23.85
242.074	-85.85
242.344	-35.85
242.614	-67.85
242.884	-180.85
243.154	-132.85
243.424	39.15
243.694	78.15
243.964	-90.85
244.234	-63.85
244.503	119.15
244.773	13.15
245.043	-207.85
245.313	-130.85
245.583	124.15
245.853	88.15
246.123	-174.85
246.392	-106.85
246.662	-1.85
246.932	-28.85
247.202	-171.85
247.471	-58.85
247.741	276.15
248.011	121.15
248.281	-141.85
248.55	-90.85
248.82	76.15
249.09	-2.85
249.359	-85.85
249.629	-74.85
249.899	61.15
250.168	71.15
250.438	-36.85
250.708	-126.85
250.977	67.15
251.247	68.15
251.516	-111.85
251.786	-64.85
252.055	118.15
252.325	21.15
252.595	-95.85
252.864	-66.85
253.134	60.15
253.403	-27.85
253.673	-163.85
253.942	-111.85
254.212	43.15
254.481	-7.85
254.75	-128.85
255.02	-68.85
255.289	87.15
255.559	-17.85
255.828	-139.85
256.097	-44.85
256.367	21.15
256.636	-81.85
256.906	-147.85
257.175	-21.85
257.444	261.15
257.714	69.15
257.983	-80.85
258.252	-39.85
258.521	3.15
258.791	48.15
259.06	-108.85
259.329	-47.85
259.598	66.15
259.868	-3.85
260.137	-121.85
260.406	-17.85
260.675	80.15
260.944	26.15
261.214	-131.85
261.483	-60.85
261.752	176.15
262.021	14.15
262.29	-160.85
262.559	-111.85
262.828	37.15
263.097	-30.85
263.366	-203.85
263.635	-100.85
263.905	133.15
264.174	12.15
264.443	-203.85
264.712	-103.85
264.981	39.15
265.25	-57.85
265.519	-150.85
265.788	-141.85
266.057	37.15
266.325	43.15
266.594	-67.85
266.863	-110.85
267.132	32.15
267.401	-2.85
267.67	-200.85
267.939	-151.85
268.208	31.15
268.477	73.15
268.745	-127.85
269.014	-107.85
269.283	122.15
269.552	28.15
269.821	-130.85
270.089	-28.85
270.358	-1.85
270.627	-22.85
270.896	-114.85
271.164	-150.85
271.433	26.15
271.702	93.15
271.971	-138.85
272.239	-133.85
272.508	16.15
272.777	-35.85
273.045	-23.85
273.314	-34.85
273.583	101.15
273.851	-1.85
274.12	-158.85
274.388	-131.85
274.657	1.15
274.926	9.15
275.194	-143.85
275.463	-58.85
275.731	40.15
276	181.15
276.268	403.15
276.537	-81.85
276.805	27.15
277.074	40.15
277.342	-152.85
277.611	-88.85
277.879	106.15
278.148	28.15
278.416	-134.85
278.684	-106.85
278.953	-20.85
279.221	-37.85
279.49	-191.85
279.758	-99.85
280.026	0.15
280.295	-2.85
280.563	-130.85
280.831	918.15
281.1	2229.15
281.368	211.15
281.636	-92.85
281.904	-102.85
282.173	-6.85
282.441	-57.85
282.709	-111.85
282.977	17.15
283.246	45.15
283.514	-44.85
283.782	-74.85
284.05	24.15
284.318	67.15
284.587	-9.85
284.855	-100.85
285.123	-31.85
285.391	69.15
285.659	50.15
285.927	-136.85
286.195	-66.85
286.463	61.15
286.732	3.15
287	-97.85
287.268	-38.85
287.536	24.15
287.804	-53.85
288.072	-147.85
288.34	-82.85
288.608	67.15
288.876	-20.85
289.144	-114.85
289.412	-17.85
289.68	46.15
289.948	-38.85
290.215	-110.85
290.483	-105.85
290.751	88.15
291.019	85.15
291.287	-165.85
291.555	-110.85
291.823	45.15
292.091	-17.85
292.358	-67.85
292.626	-24.85
292.894	88.15
293.162	63.15
293.43	-117.85
293.697	-83.85
293.965	49.15
294.233	-32.85
294.501	-162.85
294.768	-72.85
295.036	68.15
295.304	32.15
295.572	-131.85
295.839	-103.85
296.107	106.15
296.375	17.15
296.642	-117.85
296.91	-100.85
297.178	45.15
297.445	168.15
297.713	101.15
297.98	-69.85
298.248	-30.85
298.516	-55.85
298.783	-133.85
299.051	-129.85
299.318	13.15
299.586	-27.85
299.853	-84.85
300.121	-79.85
300.388	47.15
300.656	-10.85
300.923	-158.85
301.191	-48.85
301.458	48.15
301.726	-14.85
301.993	-132.85
302.26	-72.85
302.528	59.15
302.795	-6.85
303.063	-82.85
303.33	-51.85
303.597	38.15
303.865	29.15
304.132	-127.85
304.399	-126.85
304.667	-18.85
304.934	8.15
305.201	-114.85
305.469	-13.85
305.736	61.15
306.003	46.15
306.27	-40.85
306.538	-92.85
306.805	-2.85
307.072	-34.85
307.339	-90.85
307.606	-61.85
307.874	153.15
308.141	66.15
308.408	-126.85
308.675	-107.85
308.942	-45.85
309.209	-54.85
309.477	-129.85
309.744	-98.85
310.011	24.15
310.278	51.15
310.545	-17.85
310.812	-46.85
311.079	135.15
311.346	191.15
311.613	67.15
311.88	-38.85
312.147	-67.85
312.414	-39.85
312.681	-102.85
312.948	-10.85
313.215	132.15
313.482	76.15
313.749	-112.85
314.016	-208.85
314.283	-62.85
314.55	62.15
314.817	-90.85
315.083	-120.85
315.35	-73.85
315.617	-137.85
315.884	-132.85
316.151	79.15
316.418	164.15
316.684	-34.85
316.951	-187.85
317.218	-98.85
317.485	-4.85
317.752	-60.85
318.018	-123.85
318.285	-10.85
318.552	27.15
318.819	-50.85
319.085	-127.85
319.352	-50.85
319.619	45.15
319.885	-19.85
320.152	-187.85
320.419	-107.85
320.685	31.15
320.952	-25.85
321.219	-68.85
321.485	71.15
321.752	12.15
322.019	-50.85
322.285	27.15
322.552	3.15
322.818	136.15
323.085	-18.85
323.351	-128.85
323.618	-21.85
323.884	42.15
324.151	-61.85
324.417	-33.85
324.684	-85.85
324.95	-60.85
325.217	-135.85
325.483	-183.85
325.75	-43.85
326.016	8.15
326.283	-23.85
326.549	-186.85
326.815	-79.85
327.082	112.15
327.348	30.15
327.615	-105.85
327.881	-25.85
328.147	130.15
328.414	138.15
328.68	22.15
328.946	-32.85
329.212	13.15
329.479	-5.85
329.745	-107.85
330.011	-103.85
330.278	10.15
330.544	-33.85
330.81	-19.85
331.076	-31.85
331.342	-40.85
331.609	-27.85
331.875	-72.85
332.141	-81.85
332.407	41.15
332.673	-2.85
332.94	-3.85
333.206	-40.85
333.472	47.15
333.738	87.15
334.004	-105.85
334.27	-13.85
334.536	13.15
334.802	-16.85
335.068	-85.85
335.334	-7.85
335.6	26.15
335.866	-30.85
336.132	-165.85
336.398	-85.85
336.664	-20.85
336.93	-27.85
337.196	-78.85
337.462	-6.85
337.728	56.15
337.994	-22.85
338.26	-74.85
338.526	-19.85
338.792	-39.85
339.058	-25.85
339.324	-127.85
339.59	4.15
339.856	67.15
340.121	-56.85
340.387	-126.85
340.653	105.15
340.919	163.15
341.185	71.15
341.45	-63.85
341.716	30.15
341.982	120.15
342.248	-53.85
342.514	-81.85
342.779	4.15
343.045	41.15
343.311	4.15
343.576	-71.85
343.842	-18.85
344.108	146.15
344.374	35.15
344.639	-97.85
344.905	-90.85
345.171	58.15
345.436	-50.85
345.702	-81.85
345.967	82.15
346.233	115.15
346.499	43.15
346.764	-148.85
347.03	-45.85
347.295	-16.85
347.561	32.15
347.826	-12.85
348.092	-81.85
348.357	10.15
348.623	0.15
348.888	-93.85
349.154	-54.85
349.419	87.15
349.685	44.15
349.95	-31.85
350.216	0.15
350.481	91.15
350.747	-10.85
351.012	-124.85
351.277	-53.85
351.543	75.15
351.808	29.15
352.074	-131.85
352.339	-74.85
352.604	102.15
352.87	61.15
353.135	-70.85
353.4	-21.85
353.666	43.15
353.931	27.15
354.196	-83.85
354.461	-46.85
354.727	100.15
354.992	64.15
355.257	-76.85
355.522	39.15
355.788	77.15
356.053	132.15
356.318	-22.85
356.583	-37.85
356.848	166.15
357.113	288.15
357.379	36.15
357.644	20.15
357.909	194.15
358.174	200.15
358.439	-36.85
358.704	42.15
358.969	176.15
359.234	174.15
359.499	13.15
359.765	81.15
360.03	203.15
360.295	201.15
360.56	18.15
360.825	95.15
361.09	296.15
361.355	124.15
361.62	86.15
361.885	122.15
362.15	118.15
362.415	153.15
362.679	91.15
362.944	232.15
363.209	280.15
363.474	282.15
363.739	223.15
364.004	126.15
364.269	197.15
364.534	245.15
364.799	201.15
365.063	206.15
365.328	331.15
365.593	324.15
365.858	194.15
366.123	196.15
366.387	342.15
366.652	264.15
366.917	170.15
367.182	229.15
367.447	405.15
367.711	349.15
367.976	292.15
368.241	366.15
368.505	438.15
368.77	340.15
369.035	340.15
369.299	388.15
369.564	431.15
369.829	367.15
370.093	329.15
370.358	329.15
370.623	453.15
370.887	474.15
371.152	351.15
371.416	439.15
371.681	466.15
371.946	367.15
372.21	372.15
372.475	527.15
372.739	553.15
373.004	529.15
373.268	489.15
373.533	541.15
373.797	606.15
374.062	617.15
374.326	464.15
374.591	571.15
374.855	687.15
375.12	597.15
375.384	438.15
375.648	537.15
375.913	704.15
376.177	720.15
376.442	621.15
376.706	645.15
376.97	768.15
377.235	744.15
377.499	724.15
377.763	742.15
378.028	748.15
378.292	804.15
378.556	746.15
378.821	687.15
379.085	811.15
379.349	755.15
379.614	686.15
379.878	853.15
380.142	1032.15
380.406	924.15
380.671	951.15
380.935	1110.15
381.199	1234.15
381.463	1131.15
381.727	1064.15
381.991	1027.15
382.256	1096.15
382.52	1065.15
382.784	1099.15
383.048	1260.15
383.312	1192.15
383.576	1177.15
383.84	1131.15
384.104	1203.15
384.369	1308.15
384.633	1197.15
384.897	1132.15
385.161	1271.15
385.425	1387.15
385.689	1324.15
385.953	1309.15
386.217	1335.15
386.481	1434.15
386.745	1483.15
387.009	1450.15
387.273	1422.15
387.537	1485.15
387.801	1539.15
388.064	1494.15
388.328	1642.15
388.592	1701.15
388.856	1657.15
389.12	1591.15
389.384	1673.15
389.648	1719.15
389.912	1789.15
390.176	1829.15
390.439	1968.15
390.703	1817.15
390.967	1786.15
391.231	1699.15
391.495	1782.15
391.758	1913.15
392.022	1965.15
392.286	1854.15
392.55	1868.15
392.813	1990.15
393.077	2050.15
393.341	2006.15
393.605	2129.15
393.868	2063.15
394.132	2099.15
394.396	2071.15
394.659	2239.15
394.923	2202.15
395.187	2111.15
395.45	2123.15
395.714	2228.15
395.978	2269.15
396.241	2315.15
396.505	2264.15
396.768	2374.15
397.032	2416.15
397.295	2450.15
397.559	2381.15
397.823	2362.15
398.086	2519.15
398.35	2457.15
398.613	2376.15
398.877	2494.15
399.14	2667.15
399.404	2724.15
399.667	2630.15
399.931	2617.15
400.194	2679.15
400.457	2704.15
400.721	2716.15
400.984	2816.15
401.248	2747.15
401.511	2715.15
401.775	2620.15
402.038	2697.15
402.301	2963.15
402.565	2919.15
402.828	2764.15
403.091	2843.15
403.355	3047.15
403.618	2993.15
403.881	2983.15
404.145	3017.15
404.408	3083.15
404.671	3049.15
404.934	3133.15
405.198	3172.15
405.461	3201.15
405.724	3261.15
405.987	3261.15
406.251	3337.15
406.514	3471.15
406.777	3316.15
407.04	3223.15
407.303	3197.15
407.567	3365.15
407.83	3434.15
408.093	3274.15
408.356	3392.15
408.619	3464.15
408.882	3555.15
409.145	3495.15
409.408	3489.15
409.672	3571.15
409.935	3521.15
410.198	3393.15
410.461	3502.15
410.724	3739.15
410.987	3663.15
411.25	3481.15
411.513	3621.15
411.776	3728.15
412.039	3625.15
412.302	3560.15
412.565	3589.15
412.828	3654.15
413.091	3682.15
413.354	3574.15
413.617	3588.15
413.879	3646.15
414.142	3629.15
414.405	3475.15
414.668	3512.15
414.931	3647.15
415.194	3602.15
415.457	3505.15
415.72	3614.15
415.983	3606.15
416.245	3647.15
416.508	3539.15
416.771	3465.15
417.034	3622.15
417.297	3631.15
417.559	3559.15
417.822	3526.15
418.085	3645.15
418.348	3619.15
418.61	3514.15
418.873	3498.15
419.136	3552.15
419.399	3561.15
419.661	3589.15
419.924	3549.15
420.187	3652.15
420.449	3672.15
420.712	3595.15
420.975	3605.15
421.237	3691.15
421.5	3711.15
421.762	3806.15
422.025	3805.15
422.288	3889.15
422.55	3731.15
422.813	3617.15
423.075	3724.15
423.338	3823.15
423.601	3905.15
423.863	3841.15
424.126	3890.15
424.388	4008.15
424.651	4008.15
424.913	3966.15
425.176	3973.15
425.438	3965.15
425.701	3945.15
425.963	3821.15
426.225	3829.15
426.488	3917.15
426.75	3982.15
427.013	3974.15
427.275	4020.15
427.538	4017.15
427.8	4044.15
428.062	3979.15
428.325	4007.15
428.587	4074.15
428.849	4058.15
429.112	4074.15
429.374	4050.15
429.636	4067.15
429.899	4199.15
430.161	4088.15
430.423	4126.15
430.686	4295.15
430.948	4294.15
431.21	4143.15
431.472	4098.15
431.735	4212.15
431.997	4250.15
432.259	4225.15
432.521	4118.15
432.783	4266.15
433.046	4253.15
433.308	4107.15
433.57	4171.15
433.832	4413.15
434.094	4273.15
434.356	4139.15
434.618	4259.15
434.881	4312.15
435.143	4405.15
435.405	4399.15
435.667	4381.15
435.929	4374.15
436.191	4363.15
436.453	4312.15
436.715	4421.15
436.977	4556.15
437.239	4638.15
437.501	4502.15
437.763	4454.15
438.025	4535.15
438.287	4473.15
438.549	4454.15
438.811	4447.15
439.073	4467.15
439.335	4523.15
439.597	4424.15
439.859	4421.15
440.121	4551.15
440.383	4464.15
440.645	4471.15
440.907	4536.15
441.168	4540.15
441.43	4510.15
441.692	4535.15
441.954	4618.15
442.216	4631.15
442.478	4549.15
442.74	4426.15
443.001	4622.15
443.263	4782.15
443.525	4577.15
443.787	4430.15
444.048	4439.15
444.31	4488.15
444.572	4573.15
444.834	4544.15
445.095	4515.15
445.357	4711.15
445.619	4539.15
445.881	4379.15
446.142	4459.15
446.404	4484.15
446.666	4519.15
446.927	4505.15
447.189	4649.15
447.451	4717.15
447.712	4540.15
447.974	4388.15
448.235	4416.15
448.497	4496.15
448.759	4459.15
449.02	4463.15
449.282	4439.15
449.543	4590.15
449.805	4642.15
450.066	4401.15
450.328	4517.15
450.59	4716.15
450.851	4481.15
451.113	4383.15
451.374	4336.15
451.636	4588.15
451.897	4619.15
452.158	4571.15
452.42	4629.15
452.681	4608.15
452.943	4419.15
453.204	4448.15
453.466	4472.15
453.727	4451.15
453.988	4506.15
454.25	4446.15
454.511	4511.15
454.773	4605.15
455.034	4708.15
455.295	4429.15
455.557	4585.15
455.818	4624.15
456.079	4563.15
456.341	4632.15
456.602	4745.15
456.863	4790.15
457.124	4590.15
457.386	4463.15
457.647	4434.15
457.908	4549.15
458.169	4696.15
458.431	4508.15
458.692	4601.15
458.953	4659.15
459.214	4660.15
459.476	4812.15
459.737	4949.15
459.998	4932.15
460.259	4798.15
460.52	4760.15
460.781	4900.15
461.043	5078.15
461.304	4904.15
461.565	4721.15
461.826	4798.15
462.087	4954.15
462.348	5133.15
462.609	5094.15
462.87	5070.15
463.131	4953.15
463.392	5195.15
463.653	5232.15
463.914	5198.15
464.175	5221.15
464.436	5219.15
464.697	5226.15
464.958	5144.15
465.219	5196.15
465.48	5279.15
465.741	5318.15
466.002	5194.15
466.263	5401.15
466.524	5450.15
466.785	5296.15
467.046	5381.15
467.307	5528.15
467.568	5628.15
467.829	5609.15
468.089	5576.15
468.35	5624.15
468.611	5580.15
468.872	5507.15
469.133	5714.15
469.394	5931.15
469.655	5977.15
469.915	5871.15
470.176	5765.15
470.437	5842.15
470.698	6028.15
470.958	6047.15
471.219	6116.15
471.48	6232.15
471.741	6316.15
472.001	6287.15
472.262	6266.15
472.523	6499.15
472.784	6633.15
473.044	6500.15
473.305	6535.15
473.566	6557.15
473.826	6685.15
474.087	6659.15
474.348	6719.15
474.608	6896.15
474.869	6883.15
475.129	6823.15
475.39	6917.15
475.651	7052.15
475.911	7241.15
476.172	7118.15
476.432	7220.15
476.693	7489.15
476.953	7332.15
477.214	7293.15
477.475	7393.15
477.735	7430.15
477.996	7548.15
478.256	7432.15
478.517	7608.15
478.777	7752.15
479.038	7913.15
479.298	7958.15
479.558	7952.15
479.819	8108.15
480.079	8108.15
480.34	8120.15
480.6	8124.15
480.861	8283.15
481.121	8277.15
481.381	8259.15
481.642	8405.15
481.902	8428.15
482.162	8377.15
482.423	8422.15
482.683	8615.15
482.943	8751.15
483.204	8721.15
483.464	8654.15
483.724	8637.15
483.985	8776.15
484.245	8916.15
484.505	8874.15
484.765	8998.15
485.026	9071.15
485.286	9155.15
485.546	9169.15
485.806	9179.15
486.067	9200.15
486.327	9143.15
486.587	9158.15
486.847	9262.15
487.107	9336.15
487.368	9336.15
487.628	9337.15
487.888	9471.15
488.148	9546.15
488.408	9452.15
488.668	9486.15
488.928	9507.15
489.188	9589.15
489.449	9625.15
489.709	9487.15
489.969	9512.15
490.229	9700.15
490.489	9785.15
490.749	9635.15
491.009	9541.15
491.269	9677.15
491.529	9658.15
491.789	9688.15
492.049	9827.15
492.309	9901.15
492.569	9793.15
492.829	9815.15
493.089	9748.15
493.349	9946.15
493.609	9879.15
493.869	9776.15
494.129	9893.15
494.389	9974.15
494.648	9891.15
494.908	9787.15
495.168	9886.15
495.428	10040.15
495.688	10011.15
495.948	9897.15
496.208	9921.15
496.467	9931.15
496.727	9949.15
496.987	9971.15
497.247	10022.15
497.507	10090.15
497.767	10107.15
498.026	9932.15
498.286	10044.15
498.546	10176.15
498.806	10118.15
499.065	10122.15
499.325	9968.15
499.585	9997.15
499.845	10064.15
500.104	10057.15
500.364	10081.15
500.624	10129.15
500.883	10131.15
501.143	10230.15
501.403	10221.15
501.662	10264.15
501.922	10172.15
502.182	9966.15
502.441	9943.15
502.701	10094.15
502.96	10211.15
503.22	10067.15
503.48	10055.15
503.739	10150.15
503.999	10090.15
504.258	10002.15
504.518	10137.15
504.777	10191.15
505.037	10166.15
505.296	10091.15
505.556	10049.15
505.815	10187.15
506.075	10317.15
506.334	10228.15
506.594	10011.15
506.853	10088.15
507.113	10102.15
507.372	9976.15
507.632	10047.15
507.891	10172.15
508.151	10215.15
508.41	10003.15
508.669	10009.15
508.929	10200.15
509.188	10142.15
509.447	10091.15
509.707	10039.15
509.966	10136.15
510.226	10169.15
510.485	10129.15
510.744	10164.15
511.004	10227.15
511.263	10089.15
511.522	10029.15
511.781	9997.15
512.041	10113.15
512.3	10100.15
512.559	10192.15
512.818	10257.15
513.078	10226.15
513.337	10212.15
513.596	10122.15
513.855	10127.15
514.115	10212.15
514.374	10130.15
514.633	10028.15
514.892	10087.15
515.151	10263.15
515.41	10329.15
515.67	10213.15
515.929	10227.15
516.188	10345.15
516.447	10226.15
516.706	10140.15
516.965	10207.15
517.224	10267.15
517.483	10273.15
517.743	10153.15
518.002	10158.15
518.261	10318.15
518.52	10317.15
518.779	10245.15
519.038	10168.15
519.297	10235.15
519.556	10279.15
519.815	10188.15
520.074	10173.15
520.333	10345.15
520.592	10325.15
520.851	10154.15
521.11	10313.15
521.369	10467.15
521.628	10302.15
521.887	10235.15
522.145	10265.15
522.404	10280.15
522.663	10293.15
522.922	10171.15
523.181	10172.15
523.44	10264.15
523.699	10321.15
523.958	10192.15
524.217	10143.15
524.475	10144.15
524.734	10144.15
524.993	10111.15
525.252	10182.15
525.511	10281.15
525.769	10190.15
526.028	10105.15
526.287	10191.15
526.546	10255.15
526.805	10254.15
527.063	10146.15
527.322	10108.15
527.581	10228.15
527.839	10205.15
